ALV-5000/E-WIN Data
Date :	"10-Jan-11"
Time :	"14:46:47"
Samplename : 	""
SampMemo(0) : 	""
SampMemo(1) : 	""
SampMemo(2) : 	""
SampMemo(3) : 	""
SampMemo(4) : 	""
SampMemo(5) : 	""
SampMemo(6) : 	""
SampMemo(7) : 	""
SampMemo(8) : 	""
SampMemo(9) : 	""
Temperature [K] :	     298.16000
Viscosity [cp]  :	       0.89000
Refractive Index:	       1.33200
Wavelength [nm] :	     632.80000
Angle [°]       :	      90.00000
Duration [s]    :	        30
Runs            :	         6
Mode            :	"DUAL AUTO CH0"
MeanCR0 [kHz]   :	       1.69277
MeanCR1 [kHz]   :	       0.00000

"Correlation (Multi, Averaged)"
"Lag [ms]"	"Average(0)"	"Run  1"	"Run  2"	"Run  3"	"Run  4"	"Run  5"	"Run  6"	"Average(1)"	" 1,   0.000"	" 2,   0.000"	" 3,   0.000"	" 4,   0.000"	" 5,   0.000"	" 6,   0.000"	
  4.00000E-004	  2.00422E-001	  1.91019E-001	  2.06589E-001	  1.96797E-001	  2.07352E-001	  2.01731E-001	  1.99046E-001	  2.06168E+000	  1.33282E+000	  1.73641E+000	  2.40367E+000	  2.42246E+000	  2.38431E+000	  2.09043E+000	
  8.00000E-004	  1.78091E-001	  1.80774E-001	  1.73723E-001	  1.86459E-001	  1.69223E-001	  1.77084E-001	  1.81283E-001	  5.01949E-001	  4.18606E-001	  5.68055E-001	  5.23546E-001	  9.47259E-001	  3.65600E-001	  1.88626E-001	
  1.20000E-003	  1.73357E-001	  1.65987E-001	  1.76977E-001	  1.79069E-001	  1.73793E-001	  1.72096E-001	  1.72221E-001	  3.29150E-001	  1.66409E-001	  3.83578E-001	  3.93883E-001	  2.39165E-001	  4.54661E-001	  3.37204E-001	
  1.60000E-003	  1.71933E-001	  1.69417E-001	  1.75615E-001	  1.70508E-001	  1.72178E-001	  1.67898E-001	  1.75982E-001	  1.55016E-001	  8.78657E-003	  3.83578E-001	  4.26299E-001	  6.21415E-002	  1.28105E-001	 -7.88150E-002	
  2.00000E-003	  1.69918E-001	  1.73497E-001	  1.64121E-001	  1.65433E-001	  1.75847E-001	  1.76227E-001	  1.64381E-001	  3.23107E-001	  1.66409E-001	  4.45070E-001	  6.53210E-001	  3.27677E-001	  3.06227E-001	  4.00476E-002	
  2.40000E-003	  1.64677E-001	  1.62302E-001	  1.61398E-001	  1.69924E-001	  1.63338E-001	  1.73541E-001	  1.57562E-001	  2.30379E-001	  4.03112E-002	  2.60593E-001	  1.66972E-001	 -5.58742E-002	  3.35914E-001	  6.34361E-001	
  2.80000E-003	  1.64965E-001	  1.60146E-001	  1.68437E-001	  1.64124E-001	  1.66569E-001	  1.68305E-001	  1.62206E-001	  1.27269E-001	  4.03112E-002	 -4.68687E-002	  3.73081E-002	  4.16189E-001	  1.87479E-001	  1.29195E-001	
  3.20000E-003	  1.67250E-001	  1.65153E-001	  1.70884E-001	  1.59329E-001	  1.72062E-001	  1.71397E-001	  1.64676E-001	  1.09256E-001	  2.60983E-001	 -2.62092E-001	  6.97240E-002	  3.26376E-002	  3.06227E-001	  2.48057E-001	
  3.60000E-003	  1.66212E-001	  1.77112E-001	  1.62506E-001	  1.68941E-001	  1.63984E-001	  1.63001E-001	  1.61731E-001	  1.10409E-001	  1.97934E-001	  4.53698E-002	  6.97240E-002	  3.26376E-002	  6.87308E-002	  2.48057E-001	
  4.00000E-003	  1.64854E-001	  1.68931E-001	  1.61629E-001	  1.74625E-001	  1.59668E-001	  1.58938E-001	  1.65333E-001	  1.40181E-001	  1.34885E-001	  4.53698E-002	  1.34556E-001	  2.09661E-001	  2.46853E-001	  6.97633E-002	
  4.40000E-003	  1.63764E-001	  1.54120E-001	  1.65321E-001	  1.73619E-001	  1.72108E-001	  1.62549E-001	  1.54866E-001	  1.55069E-001	 -8.57872E-002	 -1.61226E-002	  3.29051E-001	  3.86685E-001	  2.76540E-001	  4.00476E-002	
  4.80000E-003	  1.59524E-001	  1.49346E-001	  1.62113E-001	  1.51471E-001	  1.67769E-001	  1.65732E-001	  1.60711E-001	  9.68784E-002	 -5.42626E-002	  3.83578E-001	 -1.24771E-001	  3.57181E-001	  1.57792E-001	 -1.38246E-001	
  5.20000E-003	  1.64676E-001	  1.62905E-001	  1.66175E-001	  1.70859E-001	  1.63061E-001	  1.61263E-001	  1.63792E-001	  7.86515E-002	  4.03112E-002	 -1.61226E-002	  6.97240E-002	  1.80157E-001	  1.57792E-001	  4.00476E-002	
  5.60000E-003	  1.63012E-001	  1.53935E-001	  1.58720E-001	  1.64404E-001	  1.63153E-001	  1.72548E-001	  1.65310E-001	  2.51343E-001	  1.66409E-001	  1.37608E-001	  2.31803E-001	  1.50653E-001	  4.54661E-001	  3.66920E-001	
  6.00000E-003	  1.57660E-001	  1.56369E-001	  1.61444E-001	  1.61200E-001	  1.59391E-001	  1.56839E-001	  1.50719E-001	  1.79454E-001	  2.29459E-001	  1.99101E-001	  3.29051E-001	  9.16455E-002	  2.46853E-001	 -1.93837E-002	
  6.40000E-003	  1.58619E-001	  1.60788E-001	  1.57113E-001	  1.60840E-001	  1.58909E-001	  1.53026E-001	  1.61040E-001	  6.81575E-002	 -1.64599E-001	 -1.61226E-002	  3.45259E-001	  1.35901E-001	  3.50757E-001	 -2.42251E-001	
  7.20000E-003	  1.59013E-001	  1.57960E-001	  1.57875E-001	  1.58069E-001	  1.61944E-001	  1.59605E-001	  1.58627E-001	  8.79536E-002	  1.50647E-001	  1.37608E-001	  5.35161E-002	  6.21415E-002	 -1.09391E-001	  2.33199E-001	
  8.00000E-003	  1.54399E-001	  1.53116E-001	  1.54944E-001	  1.56034E-001	  1.52954E-001	  1.57258E-001	  1.52090E-001	  3.73140E-002	  8.75980E-002	  1.68354E-001	  4.89226E-003	  6.21415E-002	 -6.48605E-002	 -3.42415E-002	
  8.80000E-003	  1.54057E-001	  1.50613E-001	  1.54632E-001	  1.53251E-001	  1.52481E-001	  1.58172E-001	  1.55195E-001	  1.21920E-001	  1.66409E-001	  7.61160E-002	  1.99388E-001	  1.06397E-001	 -7.97040E-002	  2.62915E-001	
  9.60000E-003	  1.52920E-001	  1.52119E-001	  1.57021E-001	  1.59997E-001	  1.55239E-001	  1.46910E-001	  1.46234E-001	  1.41327E-001	  2.13696E-001	  6.07429E-002	  1.50764E-001	  1.65405E-001	  6.87308E-002	  1.88626E-001	
  1.04000E-002	  1.56064E-001	  1.55295E-001	  1.58429E-001	  1.52654E-001	  1.57524E-001	  1.55193E-001	  1.57290E-001	  1.92037E-002	 -5.42626E-002	 -1.23734E-001	 -1.13157E-002	  7.68935E-002	  6.87308E-002	  1.58910E-001	
  1.12000E-002	  1.53560E-001	  1.54692E-001	  1.51055E-001	  1.57238E-001	  1.54085E-001	  1.53342E-001	  1.50947E-001	  1.31744E-001	  2.13696E-001	 -7.49466E-004	  1.83180E-001	 -2.63703E-002	  1.57792E-001	  2.62915E-001	
  1.20000E-002	  1.52082E-001	  1.52919E-001	  1.51990E-001	  1.54232E-001	  1.48915E-001	  1.50634E-001	  1.53801E-001	  1.92469E-002	  5.60734E-002	  2.99967E-002	  2.11002E-002	 -4.11222E-002	 -2.03301E-002	  6.97633E-002	
  1.28000E-002	  1.52799E-001	  1.46622E-001	  1.57672E-001	  1.55286E-001	  1.50978E-001	  1.55031E-001	  1.51203E-001	  6.82596E-002	  5.60516E-002	 -7.49466E-004	  1.10244E-001	  2.17037E-001	  1.57792E-001	 -1.30817E-001	
  1.44000E-002	  1.51899E-001	  1.51472E-001	  1.49380E-001	  1.49819E-001	  1.50447E-001	  1.55404E-001	  1.54874E-001	  4.31584E-002	  2.45276E-002	  5.30563E-002	 -1.13157E-002	  1.43277E-001	  9.35690E-003	  4.00476E-002	
  1.60000E-002	  1.49890E-001	  1.51656E-001	  1.51654E-001	  1.46931E-001	  1.52097E-001	  1.47747E-001	  1.49255E-001	  4.37491E-002	  2.45276E-002	 -3.14956E-002	  6.97240E-002	  1.80157E-001	  1.20683E-001	 -1.01102E-001	
  1.76000E-002	  1.49746E-001	  1.49252E-001	  1.51008E-001	  1.51901E-001	  1.51319E-001	  1.48412E-001	  1.46583E-001	  3.83321E-002	  8.75755E-002	 -1.00675E-001	  4.89226E-003	 -4.24231E-003	  1.28105E-001	  1.14337E-001	
  1.92000E-002	  1.48560E-001	  1.47253E-001	  1.52548E-001	  1.49813E-001	  1.49853E-001	  1.47046E-001	  1.44849E-001	  1.18273E-001	  1.97909E-001	  5.30563E-002	  2.11002E-002	  1.72781E-001	  6.13091E-002	  2.03484E-001	
  2.08000E-002	  1.47975E-001	  1.48029E-001	  1.41989E-001	  1.47053E-001	  1.48404E-001	  1.49834E-001	  1.52541E-001	  3.42891E-002	 -6.99630E-003	  1.14549E-001	  5.35161E-002	  7.68935E-002	 -7.97040E-002	  4.74765E-002	
  2.24000E-002	  1.46524E-001	  1.47409E-001	  1.49600E-001	  1.44897E-001	  1.46182E-001	  1.44457E-001	  1.46599E-001	  1.52357E-002	 -5.42822E-002	  9.91756E-002	 -1.16667E-001	  1.06397E-001	  5.38873E-002	  2.90305E-003	
  2.40000E-002	  1.48135E-001	  1.44279E-001	  1.49946E-001	  1.49768E-001	  1.49777E-001	  1.50482E-001	  1.44560E-001	  8.61971E-002	 -9.36871E-002	  9.91756E-002	  1.99388E-001	  3.13367E-003	  2.61696E-001	  4.74765E-002	
  2.56000E-002	  1.45716E-001	  1.46576E-001	  1.45654E-001	  1.45978E-001	  1.48722E-001	  1.43982E-001	  1.43383E-001	  3.73379E-002	 -6.21437E-002	  3.76408E-002	  1.62822E-001	  3.63256E-002	 -9.23731E-003	  5.86199E-002	
  2.88000E-002	  1.44253E-001	  1.43038E-001	  1.44167E-001	  1.41283E-001	  1.46832E-001	  1.46318E-001	  1.43878E-001	  4.68438E-002	  6.00140E-002	  1.84252E-002	  1.46615E-001	  2.89496E-002	  2.78699E-002	 -8.11404E-004	
  3.20000E-002	  1.43727E-001	  1.40595E-001	  1.44430E-001	  1.40990E-001	  1.45185E-001	  1.44458E-001	  1.46702E-001	  1.53321E-002	  4.84600E-003	  3.76620E-002	  4.12726E-002	 -4.48102E-002	  6.49771E-002	 -1.19548E-002	
  3.52000E-002	  1.43108E-001	  1.45422E-001	  1.42520E-001	  1.42651E-001	  1.44711E-001	  1.42892E-001	  1.40451E-001	  6.44741E-004	  5.60734E-002	 -5.84178E-002	 -3.16570E-002	 -2.26823E-002	 -3.52124E-002	  9.57644E-002	
  3.84000E-002	  1.41419E-001	  1.40824E-001	  1.41871E-001	  1.43195E-001	  1.42438E-001	  1.42141E-001	  1.38047E-001	 -8.31816E-003	 -3.06192E-002	  5.30348E-002	  4.53242E-002	 -1.00130E-001	  3.15806E-002	 -4.90993E-002	
  4.16000E-002	  1.42616E-001	  1.42355E-001	  1.42633E-001	  1.41382E-001	  1.45952E-001	  1.43311E-001	  1.40061E-001	  4.82045E-002	  9.05426E-004	  9.53099E-002	 -1.13988E-002	  3.26376E-002	  1.76299E-001	 -4.52586E-003	
  4.48000E-002	  1.39980E-001	  1.40170E-001	  1.39566E-001	  1.40762E-001	  1.43373E-001	  1.39653E-001	  1.36356E-001	  8.36444E-003	  4.84600E-003	  2.61534E-002	  8.17890E-002	  6.82166E-003	 -4.63253E-002	 -2.30981E-002	
  4.80000E-002	  1.40271E-001	  1.38301E-001	  1.41092E-001	  1.42563E-001	  1.37817E-001	  1.42601E-001	  1.39251E-001	 -2.14701E-003	 -6.21437E-002	  1.46236E-002	  4.53242E-002	  1.78856E-002	 -3.89038E-002	  1.03320E-002	
  5.12000E-002	  1.38648E-001	  1.37121E-001	  1.39157E-001	  1.39672E-001	  1.38217E-001	  1.40081E-001	  1.37639E-001	  3.03473E-002	  4.62654E-002	  6.83420E-002	  5.95495E-002	 -6.12616E-003	  7.05432E-002	 -5.64903E-002	
  5.76000E-002	  1.37458E-001	  1.36964E-001	  1.39021E-001	  1.37471E-001	  1.38848E-001	  1.35936E-001	  1.36508E-001	  2.49681E-002	 -7.00056E-002	  1.83835E-002	  4.13164E-002	  6.78129E-003	  8.72415E-002	  6.60917E-002	
  6.40000E-002	  1.35850E-001	  1.34104E-001	  1.34999E-001	  1.36418E-001	  1.39402E-001	  1.35731E-001	  1.34446E-001	  2.20623E-003	  8.17096E-002	 -6.59570E-003	 -2.55386E-002	 -4.11607E-002	  1.67377E-002	 -1.19150E-002	
  7.04000E-002	  1.33370E-001	  1.33229E-001	  1.32530E-001	  1.34750E-001	  1.35735E-001	  1.31844E-001	  1.32134E-001	  7.80302E-003	 -1.68068E-002	 -2.77320E-002	  7.77827E-002	 -7.97008E-003	  1.11717E-002	  1.03726E-002	
  7.68000E-002	  1.31761E-001	  1.32412E-001	  1.30946E-001	  1.32148E-001	  1.31662E-001	  1.33596E-001	  1.29804E-001	  2.97407E-002	  2.65404E-002	 -6.59570E-003	 -4.37718E-002	  9.34456E-002	  2.23038E-002	  8.65220E-002	
  8.32000E-002	  1.30398E-001	  1.29790E-001	  1.30318E-001	  1.29633E-001	  1.33460E-001	  1.31112E-001	  1.28075E-001	 -1.66487E-002	  4.86682E-003	 -3.15749E-002	 -2.35127E-002	  6.78129E-003	  1.89486E-003	 -5.83476E-002	
  8.96000E-002	  1.29465E-001	  1.29057E-001	  1.29358E-001	  1.26390E-001	  1.33454E-001	  1.30569E-001	  1.27959E-001	 -3.32612E-002	 -3.25694E-002	 -5.46327E-002	  1.49796E-002	 -3.00971E-002	 -4.26338E-002	 -5.46139E-002	
  9.60000E-002	  1.27628E-001	  1.28220E-001	  1.27611E-001	  1.26980E-001	  1.27908E-001	  1.29333E-001	  1.25718E-001	  2.31707E-002	 -6.95514E-003	 -4.67422E-003	  1.49796E-002	  5.65672E-002	  4.45682E-002	  3.45384E-002	
  1.02400E-001	  1.27071E-001	  1.26083E-001	  1.27281E-001	  1.26116E-001	  1.29127E-001	  1.28736E-001	  1.25083E-001	  9.45756E-003	  4.72072E-002	  4.03953E-002	 -2.97127E-002	 -1.53260E-002	 -1.29480E-002	  2.71297E-002	
  1.15200E-001	  1.24202E-001	  1.22703E-001	  1.24934E-001	  1.24173E-001	  1.25453E-001	  1.24998E-001	  1.22953E-001	 -1.44839E-002	 -3.75152E-002	  3.17494E-002	  2.09500E-002	 -4.94583E-002	 -6.30428E-002	  1.04133E-002	
  1.28000E-001	  1.21258E-001	  1.20421E-001	  1.22358E-001	  1.21643E-001	  1.22657E-001	  1.21951E-001	  1.18518E-001	  4.93962E-003	  1.17420E-002	  4.85091E-003	  4.12069E-002	 -5.94393E-004	 -3.33376E-002	  5.76984E-003	
  1.40800E-001	  1.19312E-001	  1.17956E-001	  1.19268E-001	  1.19172E-001	  1.20697E-001	  1.20654E-001	  1.18125E-001	  1.08042E-004	  5.31180E-002	  4.51986E-002	 -1.95639E-002	 -2.82532E-002	 -3.79761E-002	 -1.18752E-002	
  1.53600E-001	  1.16913E-001	  1.15735E-001	  1.14634E-001	  1.18915E-001	  1.18084E-001	  1.17646E-001	  1.16467E-001	  1.67132E-002	  2.87571E-003	  8.69355E-003	  6.85538E-002	 -3.36028E-003	 -3.89038E-002	  6.24199E-002	
  1.66400E-001	  1.14871E-001	  1.13815E-001	  1.15887E-001	  1.13513E-001	  1.16676E-001	  1.15433E-001	  1.13900E-001	 -1.11299E-002	 -2.47083E-002	  2.98281E-002	  1.08215E-002	 -3.37850E-002	 -2.59160E-002	 -2.30195E-002	
  1.79200E-001	  1.12798E-001	  1.11965E-001	  1.13870E-001	  1.11976E-001	  1.13730E-001	  1.15100E-001	  1.10147E-001	  1.20076E-002	  3.24300E-002	  5.81157E-003	  2.09500E-002	 -3.56289E-002	  6.22154E-002	 -1.37326E-002	
  1.92000E-001	  1.11357E-001	  1.11528E-001	  1.11024E-001	  1.10722E-001	  1.13228E-001	  1.11380E-001	  1.10261E-001	  1.56270E-002	 -3.03515E-003	  4.32773E-002	  4.62712E-002	 -2.36434E-002	  1.11920E-002	  1.97002E-002	
  2.04800E-001	  1.08760E-001	  1.08532E-001	  1.07444E-001	  1.08906E-001	  1.10299E-001	  1.09639E-001	  1.07741E-001	  5.11095E-005	 -6.97572E-003	 -1.09595E-002	 -3.50491E-003	  1.79469E-002	  2.58908E-002	 -2.20908E-002	
  2.30400E-001	  1.04992E-001	  1.04622E-001	  1.04967E-001	  1.04659E-001	  1.05272E-001	  1.06381E-001	  1.04051E-001	  1.59775E-002	  3.58780E-002	  1.78615E-002	  2.53570E-002	  4.11606E-003	  8.46406E-004	  1.18063E-002	
  2.56000E-001	  1.02112E-001	  1.00882E-001	  1.02338E-001	  1.02558E-001	  1.03556E-001	  1.02309E-001	  1.01029E-001	  1.22513E-004	 -1.06486E-003	  1.73811E-002	  1.16856E-002	 -3.26036E-003	 -1.90963E-002	 -4.91008E-003	
  2.81600E-001	  9.90999E-002	  9.87551E-002	  9.87446E-002	  9.91800E-002	  9.98034E-002	  9.94677E-002	  9.86484E-002	  5.15480E-003	 -7.97165E-005	 -1.33613E-002	  1.42173E-002	  1.65638E-002	 -5.18279E-003	  1.87715E-002	
  3.07200E-001	  9.58387E-002	  9.44211E-002	  9.56363E-002	  9.57699E-002	  9.77535E-002	  9.64934E-002	  9.49580E-002	  4.12190E-003	 -9.93115E-003	  2.12239E-002	  3.14332E-002	 -4.64344E-003	  1.31019E-003	 -1.46613E-002	
  3.32800E-001	  9.19836E-002	  9.13163E-002	  9.17394E-002	  9.26136E-002	  9.25653E-002	  9.25619E-002	  9.11050E-002	  4.95470E-003	 -1.92900E-002	 -8.55776E-003	  3.34586E-002	  7.34325E-003	  4.86162E-002	 -3.18421E-002	
  3.58400E-001	  8.97207E-002	  8.87058E-002	  8.90052E-002	  9.05938E-002	  9.15473E-002	  9.00616E-002	  8.84105E-002	 -3.00020E-003	  4.84600E-003	 -2.15272E-002	  7.12842E-003	 -4.15256E-002	  6.41182E-003	  2.66653E-002	
  3.84000E-001	  8.72970E-002	  8.57954E-002	  8.75583E-002	  8.77223E-002	  8.71968E-002	  8.75767E-002	  8.79324E-002	 -1.12759E-002	  2.01157E-002	 -3.75426E-003	 -3.99033E-003	 -2.35455E-002	 -6.03731E-002	  3.89226E-003	
  4.09600E-001	  8.55152E-002	  8.42548E-002	  8.53207E-002	  8.63404E-002	  8.66035E-002	  8.58900E-002	  8.46816E-002	 -4.34393E-004	 -2.84567E-004	  1.59609E-002	  3.85824E-003	 -6.72654E-003	 -9.97991E-003	 -5.43446E-003	
  4.60800E-001	  8.05067E-002	  7.92978E-002	  8.06519E-002	  8.08042E-002	  8.10606E-002	  8.15096E-002	  7.97161E-002	  8.42295E-003	  2.11432E-002	  8.99566E-003	  6.39004E-003	 -3.03921E-003	  2.03931E-002	 -3.34504E-003	
  5.12000E-001	  7.67104E-002	  7.59585E-002	  7.68815E-002	  7.67983E-002	  7.80446E-002	  7.70035E-002	  7.55758E-002	  3.63175E-003	  3.83839E-002	 -2.19875E-002	 -7.78803E-003	  1.47060E-002	  4.37490E-003	 -5.89878E-003	
  5.63200E-001	  7.36837E-002	  7.33752E-002	  7.36028E-002	  7.33242E-002	  7.44200E-002	  7.49492E-002	  7.24305E-002	 -7.55494E-003	 -2.09734E-002	 -1.45420E-002	  8.92184E-003	  1.33949E-003	 -1.13909E-002	 -8.68468E-003	
  6.14400E-001	  7.00362E-002	  6.90304E-002	  6.95250E-002	  7.00253E-002	  7.10785E-002	  7.06687E-002	  6.98893E-002	  1.24427E-002	  1.91728E-002	 -7.57675E-003	  2.86699E-002	  2.03086E-003	  1.34171E-002	  1.89421E-002	
  6.65600E-001	  6.76755E-002	  6.58263E-002	  6.77194E-002	  6.78413E-002	  6.92683E-002	  6.84111E-002	  6.69866E-002	 -3.97410E-003	 -2.19586E-002	 -6.61603E-003	  1.82895E-002	 -1.08748E-002	  4.37490E-003	 -7.05957E-003	
  7.16800E-001	  6.44238E-002	  6.21998E-002	  6.49027E-002	  6.42057E-002	  6.60331E-002	  6.49961E-002	  6.42050E-002	 -3.86167E-003	 -6.19567E-003	  5.89365E-004	  1.09430E-003	 -1.08748E-002	 -2.34876E-003	 -5.43446E-003	
  7.68000E-001	  6.23560E-002	  6.11472E-002	  6.25548E-002	  6.28907E-002	  6.26575E-002	  6.25820E-002	  6.23037E-002	 -3.51873E-003	 -2.25493E-003	 -4.23461E-003	 -1.00459E-002	 -5.80471E-003	  1.47877E-002	 -1.35600E-002	
  8.19200E-001	  5.95465E-002	  5.83937E-002	  5.93115E-002	  5.94885E-002	  6.04563E-002	  5.97803E-002	  5.98488E-002	 -3.50545E-003	 -1.19219E-002	  4.03726E-003	  1.02090E-002	 -2.04362E-002	 -3.93590E-003	  1.01507E-003	
  9.21600E-001	  5.55891E-002	  5.46815E-002	  5.50908E-002	  5.50755E-002	  5.72116E-002	  5.57269E-002	  5.57486E-002	  2.04223E-003	  1.13516E-002	 -7.85407E-003	  2.51254E-002	 -9.25764E-003	  3.25088E-003	 -1.03627E-002	
  1.02400E+000	  5.19750E-002	  5.11706E-002	  5.16437E-002	  5.20058E-002	  5.33087E-002	  5.16929E-002	  5.20284E-002	 -2.73425E-003	 -6.01118E-003	  1.79705E-002	  7.78253E-003	 -2.57356E-003	 -1.47161E-002	 -1.88578E-002	
  1.12640E+000	  4.89917E-002	  4.80754E-002	  4.85247E-002	  4.88745E-002	  5.10046E-002	  4.88450E-002	  4.86261E-002	  5.76744E-003	 -5.51861E-003	 -1.66224E-002	  3.28473E-002	  1.97835E-002	  1.27560E-002	 -8.64119E-003	
  1.22880E+000	  4.62067E-002	  4.57873E-002	  4.54583E-002	  4.64631E-002	  4.74585E-002	  4.61199E-002	  4.59532E-002	  7.38789E-003	  2.98227E-002	 -3.04949E-003	  1.33525E-002	 -2.22783E-003	  4.52595E-003	  1.90355E-003	
  1.33120E+000	  4.36575E-002	  4.29855E-002	  4.24965E-002	  4.38110E-002	  4.57425E-002	  4.36243E-002	  4.32849E-002	 -3.25189E-003	 -1.24145E-002	 -5.11180E-003	  6.51663E-003	  1.80567E-003	  4.06229E-003	 -1.43696E-002	
  1.43360E+000	  4.14702E-002	  4.08846E-002	  4.02429E-002	  4.14257E-002	  4.29594E-002	  4.17815E-002	  4.15269E-002	  3.62900E-003	 -1.73401E-002	  1.96313E-002	  3.26990E-002	 -7.89462E-003	 -4.97914E-003	 -3.42494E-004	
  1.53600E+000	  3.91526E-002	  3.92856E-002	  3.86736E-002	  3.89793E-002	  4.01926E-002	  3.86382E-002	  3.91463E-002	 -2.21362E-003	 -2.47285E-002	  1.51664E-002	  2.16860E-002	 -4.99187E-004	 -2.79305E-002	  3.02414E-003	
  1.63840E+000	  3.74240E-002	  3.74460E-002	  3.67406E-002	  3.66743E-002	  3.90064E-002	  3.72390E-002	  3.74375E-002	 -3.54523E-003	 -6.52896E-004	  3.92032E-003	 -2.12839E-004	 -8.03792E-003	 -1.22271E-002	 -4.06089E-003	
  1.84320E+000	  3.42603E-002	  3.42076E-002	  3.33344E-002	  3.33875E-002	  3.61134E-002	  3.36843E-002	  3.48347E-002	  6.14589E-003	  7.35272E-003	  4.98091E-003	  1.38570E-002	  6.32595E-003	  6.37967E-004	  3.72079E-003	
  2.04800E+000	  3.14267E-002	  3.12624E-002	  3.05774E-002	  3.08538E-002	  3.32959E-002	  3.07258E-002	  3.18450E-002	 -2.07645E-003	 -8.86380E-003	  2.93876E-003	 -2.53330E-003	  6.01775E-003	 -1.79597E-003	 -8.22213E-003	
  2.25280E+000	  2.92257E-002	  2.98488E-002	  2.77035E-002	  2.81541E-002	  3.07386E-002	  2.89415E-002	  2.99676E-002	  4.37268E-003	  7.02394E-003	 -1.03953E-002	  2.39405E-002	  1.37180E-003	 -5.04122E-003	  9.33636E-003	
  2.45760E+000	  2.71082E-002	  2.73950E-002	  2.63037E-002	  2.64736E-002	  2.76937E-002	  2.63559E-002	  2.84271E-002	 -6.59791E-004	 -5.10739E-003	  1.91768E-003	 -8.03670E-004	  5.53962E-003	 -2.41337E-003	 -3.09160E-003	
  2.66240E+000	  2.54235E-002	  2.58726E-002	  2.40245E-002	  2.50226E-002	  2.59671E-002	  2.49593E-002	  2.66951E-002	 -7.67055E-004	 -2.52102E-003	 -1.44943E-004	  7.67643E-003	  4.06195E-003	 -1.12800E-002	 -2.39471E-003	
  2.86720E+000	  2.39489E-002	  2.40345E-002	  2.28865E-002	  2.35138E-002	  2.42502E-002	  2.39163E-002	  2.50920E-002	  2.04786E-004	 -1.19384E-004	  3.59945E-003	 -3.37739E-003	 -6.65327E-003	  1.40450E-002	 -6.26571E-003	
  3.07200E+000	  2.26873E-002	  2.36866E-002	  2.14135E-002	  2.25992E-002	  2.25893E-002	  2.27121E-002	  2.31234E-002	  3.85977E-003	 -2.83406E-004	 -2.06693E-003	  9.70153E-003	  7.28804E-003	  1.14748E-002	 -2.95539E-003	
  3.27680E+000	  2.14988E-002	  2.24728E-002	  2.02303E-002	  2.17216E-002	  2.14554E-002	  2.14521E-002	  2.16604E-002	 -2.60622E-004	 -6.62474E-003	  3.01935E-003	 -3.39953E-004	  3.75614E-004	  2.91313E-003	 -9.07132E-004	
  3.68640E+000	  1.88652E-002	  2.00304E-002	  1.78670E-002	  1.86964E-002	  1.92454E-002	  1.81953E-002	  1.91568E-002	  4.67272E-003	 -3.15357E-003	 -5.54495E-004	  1.01133E-002	  1.37117E-002	  7.40387E-003	  5.15581E-004	
  4.09600E+000	  1.66863E-002	  1.72914E-002	  1.60988E-002	  1.63603E-002	  1.69220E-002	  1.59962E-002	  1.74490E-002	  4.42807E-003	 -1.36667E-003	  1.18738E-003	  1.41534E-002	  6.26506E-003	  4.27484E-003	  2.05443E-003	
  4.50560E+000	  1.51610E-002	  1.53288E-002	  1.46425E-002	  1.50064E-002	  1.56494E-002	  1.44687E-002	  1.58700E-002	  3.67590E-003	  4.27133E-003	 -7.99278E-003	  1.69484E-002	  1.86108E-003	  4.59354E-003	  2.37382E-003	
  4.91520E+000	  1.41763E-002	  1.46550E-002	  1.37556E-002	  1.42051E-002	  1.40407E-002	  1.32000E-002	  1.52013E-002	  5.51281E-004	 -6.43989E-003	 -2.01647E-003	  1.21281E-002	  7.08822E-003	 -3.89739E-004	 -7.06254E-003	
  5.32480E+000	  1.32704E-002	  1.41346E-002	  1.26145E-002	  1.31148E-002	  1.31445E-002	  1.25839E-002	  1.40300E-002	  4.62766E-003	  1.09568E-002	 -2.10657E-003	  1.46913E-002	 -4.07075E-003	  3.59820E-005	  8.25917E-003	
  5.73440E+000	  1.23602E-002	  1.36803E-002	  1.18636E-002	  1.15881E-002	  1.25119E-002	  1.18637E-002	  1.26538E-002	  2.04926E-003	 -3.19169E-004	 -1.21267E-002	  2.19064E-002	 -9.77861E-003	  3.62865E-003	  8.98506E-003	
  6.14400E+000	  1.17966E-002	  1.36428E-002	  1.17304E-002	  1.05898E-002	  1.15836E-002	  1.11050E-002	  1.21279E-002	  5.14852E-004	 -7.40399E-004	  3.96983E-004	  1.00395E-002	  2.31894E-003	 -2.74544E-003	 -6.18053E-003	
  6.45120E+000	  1.13041E-002	  1.31064E-002	  1.15121E-002	  9.81322E-003	  1.08834E-002	  1.08316E-002	  1.16779E-002	  1.23327E-003	 -4.42423E-003	  6.36377E-004	  7.18622E-003	  1.70493E-003	 -1.21678E-003	  3.51310E-003	
  7.27040E+000	  1.00758E-002	  1.16348E-002	  1.06251E-002	  8.28868E-003	  9.91843E-003	  9.84467E-003	  1.01433E-002	  1.40862E-003	 -3.47945E-003	 -5.37186E-003	  1.49141E-002	  1.91727E-003	  4.90200E-004	 -1.85300E-005	
  8.08960E+000	  9.02480E-003	  1.03479E-002	  9.67284E-003	  7.66343E-003	  8.96909E-003	  8.83214E-003	  8.66335E-003	  3.66559E-003	  7.23012E-003	  4.76347E-003	  1.08581E-002	  1.67481E-004	 -9.12549E-004	 -1.13021E-004	
  8.90880E+000	  7.93486E-003	  9.73834E-003	  8.83082E-003	  5.83035E-003	  7.88214E-003	  7.51681E-003	  7.81070E-003	  1.48822E-003	 -2.44888E-003	  1.32703E-003	  7.86554E-003	  2.41273E-003	 -1.09426E-003	  8.67168E-004	
  9.72800E+000	  7.70347E-003	  9.14645E-003	  8.83699E-003	  5.59968E-003	  7.99793E-003	  6.77136E-003	  7.86838E-003	 -1.22120E-003	  4.86623E-004	 -4.87227E-003	  6.44450E-003	 -3.53278E-003	 -4.96335E-003	 -8.89942E-004	
  1.05472E+001	  6.94564E-003	  8.01480E-003	  7.51320E-003	  6.16103E-003	  7.61777E-003	  5.40012E-003	  6.96693E-003	  4.49098E-005	  3.99300E-003	  3.60399E-003	  6.72278E-004	 -3.26700E-003	 -4.85162E-003	  1.18813E-004	
  1.13664E+001	  6.25664E-003	  7.88918E-003	  5.90626E-003	  5.94643E-003	  7.67375E-003	  4.71515E-003	  5.40908E-003	  2.55695E-003	 -5.03239E-004	  2.02843E-003	  1.29848E-002	 -2.89662E-003	 -5.33128E-004	  4.26151E-003	
  1.21856E+001	  6.08821E-003	  7.95720E-003	  5.61807E-003	  5.84932E-003	  7.34923E-003	  4.08846E-003	  5.66699E-003	  3.95362E-003	  1.95216E-003	 -2.36774E-003	  8.57148E-003	  3.40072E-003	  1.00463E-002	  2.11874E-003	
  1.30048E+001	  5.73714E-003	  7.58478E-003	  5.55213E-003	  4.78286E-003	  6.84563E-003	  4.33918E-003	  5.31827E-003	  2.69356E-003	  5.57269E-003	  3.60003E-004	  8.78525E-003	  2.03364E-003	 -8.48612E-004	  2.58380E-004	
  1.46432E+001	  5.30819E-003	  7.26634E-003	  4.93494E-003	  4.26601E-003	  5.92829E-003	  4.71345E-003	  4.74009E-003	  4.82813E-004	  3.51236E-005	 -2.71138E-003	  7.58049E-003	 -1.46259E-003	 -1.38444E-004	 -4.06324E-004	
  1.62816E+001	  4.59833E-003	  6.30710E-003	  4.15885E-003	  4.30947E-003	  5.14200E-003	  3.54547E-003	  4.12710E-003	  2.59512E-003	  1.08724E-003	  3.71734E-003	  6.96275E-003	 -2.94059E-004	  5.15417E-003	 -1.05673E-003	
  1.79200E+001	  3.74311E-003	  5.63184E-003	  2.79772E-003	  3.28339E-003	  4.26410E-003	  2.39164E-003	  4.08995E-003	  2.69619E-003	 -1.18027E-003	  5.34441E-003	  1.07871E-002	  4.95075E-004	 -1.77969E-004	  9.08789E-004	
  1.95584E+001	  3.48542E-003	  5.23860E-003	  1.84748E-003	  3.64313E-003	  4.25990E-003	  1.35195E-003	  4.57147E-003	  8.49620E-004	  6.11312E-004	  5.28665E-004	  7.81107E-003	 -7.51304E-004	 -9.32417E-004	 -2.16961E-003	
  2.11968E+001	  3.10440E-003	  4.41079E-003	  1.54462E-003	  2.79742E-003	  4.46861E-003	  1.95297E-003	  3.45201E-003	 -1.05882E-003	 -3.60154E-003	 -2.34128E-003	  7.03246E-003	 -1.56966E-003	 -1.51605E-003	 -4.35683E-003	
  2.28352E+001	  2.42335E-003	  3.32581E-003	  8.56306E-004	  1.96558E-003	  3.50465E-003	  2.21908E-003	  2.66867E-003	  4.47462E-004	 -1.74131E-003	  1.38689E-004	  1.15286E-002	 -7.37767E-004	 -1.91076E-003	 -4.59271E-003	
  2.44736E+001	  1.96579E-003	  2.75169E-003	  3.52959E-005	  1.49737E-003	  3.12726E-003	  1.62339E-003	  2.75976E-003	 -2.63308E-004	 -6.86136E-003	 -7.82399E-004	  3.34298E-003	 -1.82450E-003	  9.03882E-004	  3.64154E-003	
  2.61120E+001	  1.53731E-003	  2.46196E-003	  6.94411E-005	  1.18013E-003	  2.11169E-003	  1.58698E-003	  1.81367E-003	 -5.83224E-004	 -2.76611E-003	 -2.31693E-003	  4.90365E-003	 -4.69647E-004	 -2.08428E-004	 -2.64189E-003	
  2.93888E+001	  1.44892E-003	  2.20829E-003	  7.35890E-004	  1.14286E-003	  1.72270E-003	  1.45503E-003	  1.42875E-003	  2.44962E-003	 -8.67547E-005	  8.62594E-004	  1.05991E-002	  1.31835E-003	  9.25455E-004	  1.07899E-003	
  3.26656E+001	  1.62128E-003	  2.19425E-003	  1.40335E-003	  8.33588E-004	  2.19406E-003	  9.70694E-004	  2.13170E-003	 -6.04051E-004	 -4.89564E-003	  2.02228E-004	  6.41863E-003	 -1.70275E-003	 -2.37006E-003	 -1.27671E-003	
  3.59424E+001	  1.70089E-003	  1.83960E-003	  2.41566E-003	  4.63522E-004	  1.72621E-003	  1.62937E-003	  2.13098E-003	  2.43695E-003	  1.13782E-003	  2.30228E-003	  9.87875E-003	 -1.06779E-003	  3.76261E-003	 -1.39198E-003	
  3.92192E+001	  1.89793E-003	  1.81462E-003	  1.93828E-003	  1.09313E-003	  1.51914E-003	  2.20194E-003	  2.82046E-003	  9.11796E-004	  1.53038E-003	 -1.19455E-003	  8.18958E-003	 -1.51713E-003	  7.60306E-004	 -2.29781E-003	
  4.24960E+001	  1.72519E-003	  1.51764E-003	  1.93182E-003	  1.53058E-003	  1.44872E-003	  1.13065E-003	  2.79174E-003	  1.64457E-003	 -1.84847E-003	 -9.20120E-004	  9.28674E-003	  2.77757E-003	 -6.78101E-005	  6.39508E-004	
  4.57728E+001	  1.46150E-003	  2.04512E-003	  2.29653E-003	  2.09858E-004	  1.29761E-003	  4.84743E-004	  2.43516E-003	  4.58316E-004	  2.70893E-003	 -5.78120E-005	  8.91371E-003	 -2.56020E-003	 -3.52933E-003	 -2.72541E-003	
  4.90496E+001	  1.08962E-003	  9.76883E-004	  1.37560E-003	  2.74629E-004	  5.84335E-004	  1.06821E-003	  2.25804E-003	  1.19700E-003	 -2.22299E-003	  1.55159E-003	  7.57975E-003	  1.70545E-003	 -1.14281E-003	 -2.88995E-004	
  5.23264E+001	  5.61253E-004	  1.10775E-003	 -6.53912E-005	 -4.19634E-004	  2.50891E-004	  5.69738E-004	  1.92416E-003	  7.09646E-004	 -1.47637E-003	 -4.48508E-004	  6.02139E-003	  5.67245E-005	 -1.53784E-003	  1.64248E-003	
  5.88800E+001	  6.27031E-004	  1.09568E-003	  1.98237E-005	  4.07762E-004	 -4.38235E-004	  1.51651E-003	  1.16065E-003	  1.20647E-003	  1.20996E-003	  7.74008E-004	  9.18666E-003	 -2.70423E-003	 -2.43498E-003	  1.20737E-003	
  6.54336E+001	  5.29136E-004	  1.20212E-003	 -3.29460E-004	  9.76558E-004	 -5.89063E-006	  1.32941E-003	  2.07571E-006	  1.02319E-003	 -1.74818E-003	 -7.81816E-004	  9.84887E-003	 -2.94136E-004	 -8.20920E-004	 -6.46572E-005	
  7.19872E+001	  3.10887E-004	  2.02912E-003	 -1.07537E-003	 -4.19608E-004	  1.82809E-004	  4.95061E-004	  6.53313E-004	  2.35968E-003	  1.27066E-003	  1.44358E-003	  1.00043E-002	 -1.25686E-003	  9.33929E-004	  1.76245E-003	
  7.85408E+001	  4.64949E-004	  1.67915E-003	 -3.73434E-004	  4.30954E-004	  3.95183E-004	 -3.62703E-004	  1.02055E-003	  1.84536E-003	  1.99109E-003	 -2.08936E-003	  1.11170E-002	  1.95735E-003	 -5.85398E-005	 -1.84535E-003	
  8.50944E+001	  3.67545E-004	  1.11868E-003	 -2.58634E-004	  1.60003E-004	  6.45042E-004	  3.80336E-005	  5.02145E-004	  1.33239E-003	 -5.41008E-004	 -6.10978E-004	  8.38768E-003	  6.12427E-004	 -2.93292E-004	  4.39532E-004	
  9.16480E+001	  1.52153E-004	  6.49491E-004	  5.52934E-004	 -9.88675E-004	 -5.65737E-004	  8.23063E-004	  4.41840E-004	  1.32762E-003	  4.97895E-004	  2.05298E-003	  7.82022E-003	  1.33038E-003	 -3.97832E-004	 -3.33790E-003	
  9.82016E+001	  5.17696E-004	  1.74868E-003	 -4.86528E-005	 -6.66271E-004	 -9.27877E-006	  1.01492E-003	  1.06678E-003	  1.16558E-003	  1.39944E-004	  5.41597E-004	  8.02513E-003	 -1.03362E-003	 -1.43946E-003	  7.59888E-004	
  1.04755E+002	  1.87032E-004	  1.02530E-003	 -9.76137E-004	 -1.97334E-004	  7.19465E-004	 -1.86706E-004	  7.37604E-004	  9.61156E-004	  4.73699E-004	 -7.86168E-004	  6.49520E-003	 -5.19016E-004	 -3.84029E-004	  4.87253E-004	
  1.17862E+002	  2.53661E-004	  1.05735E-003	 -2.12074E-003	  6.38108E-004	  4.52642E-004	  9.49225E-004	  5.45380E-004	  1.26211E-003	  1.11350E-004	 -1.19233E-003	  7.01922E-003	  1.03811E-003	  9.28068E-005	  5.03477E-004	
  1.30970E+002	  4.65431E-004	  7.95218E-004	 -9.78925E-005	  4.80647E-004	  5.53031E-004	  2.56577E-004	  8.05006E-004	  1.14678E-003	 -5.78997E-004	 -3.57338E-004	  7.37110E-003	 -5.12691E-005	  3.02679E-004	  1.94495E-004	
  1.44077E+002	  5.66369E-004	  9.41215E-004	  5.88231E-004	 -1.98029E-004	  1.24230E-003	 -1.34980E-004	  9.59478E-004	  1.24131E-003	 -3.93835E-004	  9.06507E-004	  7.18559E-003	  9.03588E-004	 -6.24557E-004	 -5.29413E-004	
  1.57184E+002	  8.79810E-004	  3.41619E-004	  7.50319E-004	 -7.53596E-004	  2.17345E-003	  1.76983E-003	  9.97237E-004	  2.11750E-003	  1.40042E-003	  6.37001E-004	  8.87477E-003	  3.93378E-004	  3.14410E-004	  1.08499E-003	
  1.70291E+002	  6.43949E-004	 -9.08653E-004	  1.30082E-003	 -4.32845E-004	  1.11919E-003	  1.41367E-003	  1.37150E-003	  1.11985E-003	  1.21124E-003	  4.46253E-005	  5.50939E-003	 -1.28901E-004	  1.08835E-003	 -1.00558E-003	
  1.83398E+002	  5.57468E-004	  1.63661E-004	  8.46964E-004	  6.86677E-004	  1.50291E-003	  4.96890E-004	 -3.52292E-004	  1.76629E-003	  2.68163E-004	  1.28208E-003	  7.17864E-003	 -2.18226E-004	  7.30353E-004	  1.35674E-003	
  1.96506E+002	  1.19066E-003	  1.48503E-003	  5.66521E-004	  1.83332E-003	  2.54114E-003	  1.16343E-003	 -4.45475E-004	  1.13828E-003	  1.60421E-004	 -1.38962E-003	  8.31746E-003	  1.40892E-003	 -2.51486E-004	 -1.41601E-003	
  2.09613E+002	  9.16177E-004	  9.00609E-004	  5.96124E-004	  1.35235E-003	  1.62408E-003	  1.30403E-003	 -2.80128E-004	  1.53992E-003	  1.32465E-003	 -6.55775E-005	  8.85672E-003	 -1.58173E-004	 -5.41630E-004	 -1.76479E-004	
  2.35827E+002	 -2.71235E-005	  2.89727E-004	  7.42787E-006	  1.94575E-004	 -8.41909E-004	  3.79486E-004	 -1.92048E-004	  1.44774E-003	 -8.59887E-005	  4.35712E-004	  7.69205E-003	  5.43333E-004	 -2.38041E-004	  3.39406E-004	
  2.62042E+002	 -6.70109E-005	  7.97011E-005	 -2.42703E-004	  2.13433E-005	 -2.06951E-004	 -9.26375E-005	  3.91825E-005	  1.26254E-003	  1.08418E-003	  1.18470E-003	  6.54430E-003	 -3.47620E-004	 -3.18947E-006	 -8.87129E-004	
  2.88256E+002	 -1.38202E-004	 -3.08349E-004	 -3.93098E-004	  2.01899E-004	 -8.48867E-004	  6.62687E-004	 -1.43487E-004	  1.39461E-003	 -3.40681E-004	  5.41811E-004	  7.04388E-003	  4.30628E-004	  4.03478E-004	  2.88540E-004	
  3.14470E+002	  1.79898E-004	 -5.91863E-004	  2.09580E-004	 -3.23669E-004	  1.04841E-003	  2.38857E-004	  4.98070E-004	  1.58779E-003	  1.31644E-004	 -4.43353E-004	  8.89336E-003	  5.56282E-004	  2.00722E-004	  1.88095E-004	
  3.40685E+002	  2.50641E-004	  7.54630E-004	  6.39177E-004	 -4.16886E-004	 -1.05882E-004	  5.40756E-004	  9.20500E-005	  1.18318E-003	 -4.18949E-004	 -5.19558E-004	  6.63784E-003	 -7.86166E-004	  3.05222E-004	  1.88067E-003	
  3.66899E+002	  4.05294E-004	  9.67822E-004	  9.47597E-005	  1.62978E-004	  5.67635E-005	  7.10141E-004	  4.39303E-004	  1.31138E-003	  1.29285E-003	  5.91163E-004	  7.70156E-003	 -1.44406E-003	  3.82089E-004	 -6.55345E-004	
  3.93114E+002	  2.65408E-005	 -2.50630E-004	 -3.20080E-004	  3.61720E-005	 -2.87050E-004	  6.20110E-004	  3.60723E-004	  1.72176E-003	  6.80728E-004	  2.14937E-004	  8.59828E-003	 -1.59411E-004	 -1.42490E-004	  1.13853E-003	
  4.19328E+002	 -2.07212E-004	 -5.21918E-004	 -1.06566E-004	  3.48865E-004	 -7.64369E-004	 -2.71159E-004	  7.18775E-005	  1.37091E-003	  4.14490E-004	 -2.98212E-004	  7.90362E-003	  1.80535E-004	 -1.45414E-004	  1.70448E-004	
  4.71757E+002	  1.38742E-005	  2.15470E-004	 -3.07878E-004	  1.10968E-004	 -3.70638E-004	  4.08596E-004	  2.67278E-005	  1.16326E-003	  2.50589E-004	  4.72180E-004	  6.80485E-003	  2.74845E-005	 -3.48197E-004	 -2.27341E-004	
  5.24186E+002	  4.98765E-004	  5.22644E-005	  2.50292E-005	  1.75305E-004	  1.00298E-003	  1.26669E-003	  4.70320E-004	  1.10207E-003	 -1.45802E-004	 -5.54949E-005	  7.18407E-003	  5.56512E-004	 -3.11397E-004	 -6.15475E-004	
  5.76614E+002	  6.40814E-005	 -4.28992E-005	  6.06915E-004	 -1.46551E-004	 -6.02294E-005	  5.20517E-005	 -2.47983E-005	  9.19415E-004	 -3.09938E-004	 -5.33442E-004	  6.82310E-003	 -4.16347E-004	 -1.44771E-004	  9.78831E-005	
  6.29043E+002	  6.32874E-005	 -2.07092E-004	 -4.60878E-004	  1.15160E-003	  4.32372E-004	 -2.84040E-004	 -2.52242E-004	  1.26828E-003	  6.32495E-005	  1.90303E-004	  6.79025E-003	  1.51898E-005	  3.61136E-004	  1.89522E-004	
  6.81472E+002	 -1.00937E-004	 -2.24693E-004	 -6.87931E-004	  5.51697E-004	 -2.51438E-004	 -2.57453E-004	  2.64196E-004	  1.16911E-003	  7.45895E-004	  3.29709E-004	  7.47587E-003	 -5.70529E-004	 -6.38754E-004	 -3.27507E-004	
  7.33901E+002	  5.65390E-005	 -3.24067E-004	 -1.01028E-004	  9.82462E-004	 -2.40384E-004	 -8.89531E-005	  1.11204E-004	  7.08958E-004	 -1.79526E-004	  7.23364E-004	  6.13254E-003	 -6.85019E-004	 -6.87561E-004	 -1.05005E-003	
  7.86330E+002	 -1.49421E-004	 -6.28839E-004	 -6.39717E-004	  4.21482E-004	 -3.55879E-004	 -1.52836E-004	  4.59264E-004	  1.09255E-003	 -5.84019E-005	 -4.51549E-005	  5.83999E-003	  2.95461E-004	  7.10721E-004	 -1.87328E-004	
  8.38758E+002	 -1.09238E-004	  2.68974E-004	 -6.18643E-004	  1.82099E-004	 -8.27599E-004	 -4.91639E-005	  3.88904E-004	  1.05113E-003	 -2.07343E-004	  6.79788E-005	  6.90010E-003	 -3.53682E-004	  3.36510E-004	 -4.36780E-004	
  9.43616E+002	  1.42387E-004	  1.01463E-003	 -1.13007E-005	  2.37803E-004	 -3.34882E-004	  4.69650E-005	 -9.88965E-005	  1.12890E-003	  4.69039E-004	  7.63925E-004	  5.31229E-003	  6.43317E-004	  2.17233E-004	 -6.32379E-004	
  1.04847E+003	 -1.71294E-005	  5.78185E-004	 -3.52684E-004	  7.25831E-004	 -4.15436E-004	 -2.65971E-004	 -3.72702E-004	  8.55854E-004	  4.66184E-005	 -2.07070E-004	  5.49600E-003	 -1.02754E-004	 -1.75275E-004	  7.76100E-005	
  1.15333E+003	 -7.81672E-005	  2.98873E-004	 -1.07551E-004	 -1.35498E-005	 -2.02161E-004	 -2.08638E-004	 -2.35976E-004	  6.25058E-004	  2.15706E-004	 -4.21630E-004	  4.92186E-003	 -1.31849E-004	 -3.70905E-004	 -4.62830E-004	
  1.25819E+003	 -2.87713E-005	 -3.54366E-004	  9.94317E-005	 -2.43758E-005	 -3.58659E-004	  1.63179E-004	  3.02162E-004	  7.11988E-004	 -3.64316E-004	  5.74578E-005	  5.08760E-003	  3.16017E-004	 -3.04727E-004	 -5.20107E-004	
  1.36305E+003	 -1.83071E-004	 -5.42480E-004	 -2.58306E-004	 -2.61513E-004	 -3.87235E-004	  4.76414E-005	  3.03466E-004	  5.92989E-004	 -1.42150E-004	 -1.59565E-004	  3.88638E-003	 -8.55175E-005	  3.92480E-004	 -3.33693E-004	
  1.46790E+003	  2.38017E-004	  2.31833E-004	  2.17230E-004	  2.70934E-004	  7.68200E-005	  2.64920E-004	  3.66364E-004	  6.82983E-004	  4.32959E-005	 -4.03165E-004	  3.69382E-003	  1.41587E-004	  2.06748E-004	  4.15607E-004	
  1.57276E+003	 -1.78676E-004	 -3.01924E-004	 -3.53374E-004	 -2.66408E-005	 -2.94698E-004	 -1.75143E-004	  7.97245E-005	  5.42697E-004	 -4.29430E-004	  3.68087E-004	  2.87553E-003	  2.27296E-004	  4.00923E-005	  1.74613E-004	
  1.67762E+003	 -2.10304E-005	  9.96433E-005	  6.05176E-005	  3.41857E-004	 -1.98393E-004	 -9.59973E-005	 -3.33810E-004	  5.66940E-004	  1.49586E-004	  2.23581E-004	  2.87057E-003	 -2.51752E-004	  3.26556E-004	  8.30967E-005	
  1.88733E+003	  1.86194E-004	 -8.16599E-005	  1.74898E-004	  6.12037E-004	 -5.35989E-005	  7.29505E-004	 -2.64015E-004	  6.59085E-004	  2.27999E-004	  7.64060E-005	  3.31399E-003	  2.60039E-004	 -1.45429E-005	  9.06201E-005	
  2.09705E+003	 -3.70850E-005	  2.35741E-005	 -2.81813E-004	  4.61959E-005	 -9.45942E-005	 -8.43761E-005	  1.68503E-004	  3.20358E-004	  1.89007E-004	  6.23244E-006	  2.29394E-003	 -2.58849E-004	 -7.39298E-004	  4.31118E-004	
  2.30676E+003	  3.93429E-005	 -7.10863E-004	  2.48458E-004	  4.02441E-004	  1.48410E-005	  2.21683E-004	  5.94980E-005	  1.05973E-004	 -2.99908E-004	 -2.70548E-005	  9.07918E-004	 -9.51249E-005	  1.32981E-004	  1.70273E-005	
  2.51648E+003	  5.78865E-006	 -2.67717E-004	  3.90058E-005	 -8.66452E-005	  9.53123E-005	  5.85273E-005	  1.96249E-004	  3.07629E-004	 -2.50182E-004	  3.71026E-004	  1.18845E-003	  3.52338E-004	 -1.08684E-004	  2.92819E-004	
  2.72620E+003	 -2.01227E-005	 -5.56771E-004	  1.75465E-006	 -3.84448E-005	  1.15114E-004	  1.65176E-005	  3.41093E-004	  1.39482E-004	 -6.83324E-005	  2.96802E-004	  6.27990E-004	 -5.07618E-005	  1.71650E-004	 -1.40456E-004	
  2.93591E+003	  4.18164E-005	 -5.82895E-004	  1.58360E-004	  1.51135E-004	  6.07613E-004	 -2.62623E-004	  1.79308E-004	 -5.71136E-005	 -2.21786E-004	  9.90440E-005	 -3.64102E-004	  1.34677E-004	  1.05129E-004	 -9.56437E-005	
  3.14563E+003	 -8.25130E-005	  2.81573E-004	 -3.57610E-004	 -4.66390E-004	 -3.04905E-004	  4.26489E-004	 -7.42344E-005	 -1.42634E-004	 -4.08942E-004	  4.92690E-004	 -9.98195E-004	  2.08886E-004	 -9.13841E-005	 -5.88593E-005	
  3.35534E+003	 -1.08313E-004	  5.73249E-005	 -6.21288E-005	 -3.42762E-004	 -3.99494E-004	  4.42863E-005	  5.28985E-005	 -4.29146E-004	 -3.55956E-004	  1.94963E-004	 -2.27068E-003	 -7.10610E-005	 -1.52647E-004	  8.04994E-005	
  3.77477E+003	 -4.91516E-005	 -1.17113E-004	  1.94783E-004	  4.33640E-005	 -1.19202E-004	 -1.60466E-004	 -1.36275E-004	 -3.81078E-004	  3.32852E-004	 -9.15192E-005	 -2.52875E-003	  6.98652E-005	 -3.27568E-004	  2.58652E-004	
  4.19420E+003	 -8.01886E-005	 -7.92662E-005	  4.16484E-004	  6.33221E-005	 -9.00149E-005	 -1.65615E-004	 -6.26041E-004	 -2.67753E-004	 -2.77006E-005	 -8.69795E-007	 -1.89344E-003	  2.09388E-005	  2.34805E-004	  5.97461E-005	
  4.61363E+003	 -1.47666E-004	  2.04970E-004	  1.12626E-004	 -3.00042E-004	 -4.33272E-005	 -7.27658E-004	 -1.32567E-004	 -2.76218E-004	  3.12291E-005	 -1.35741E-004	 -1.32718E-003	  9.61462E-005	  6.04890E-005	 -3.82248E-004	
  5.03306E+003	 -1.71093E-004	  1.52281E-005	 -4.40400E-004	 -1.60370E-004	 -1.27419E-004	 -1.52516E-004	 -1.61083E-004	 -1.01778E-004	 -1.53823E-004	 -4.03292E-005	 -5.24486E-004	 -7.68929E-005	  2.09928E-004	 -2.50656E-005	
  5.45249E+003	  2.39180E-005	  3.78590E-004	  5.26422E-005	 -4.33107E-004	 -8.90337E-006	  2.01511E-004	 -4.72244E-005	 -1.56639E-004	 -3.43866E-004	 -1.38081E-004	 -7.18475E-004	  5.77932E-006	  1.16699E-004	  1.38111E-004	
  5.87192E+003	  7.01438E-005	 -6.36733E-005	  3.88250E-004	 -1.02984E-004	 -6.77740E-005	  2.74904E-004	 -7.85994E-006	 -1.37859E-004	 -2.74085E-004	 -2.44077E-004	 -5.15977E-004	  3.57606E-006	  1.50839E-004	  5.25679E-005	
  6.29135E+003	 -1.62595E-004	 -3.02757E-004	 -6.97664E-005	 -1.67697E-004	  2.75094E-004	 -4.81534E-004	 -2.28908E-004	 -2.16344E-004	 -2.98078E-004	 -1.15779E-004	 -3.46083E-004	 -1.97992E-004	 -2.16996E-004	 -1.23133E-004	

"Count Rate"
       0.11719	      64.50946	       1.61338
       0.23438	      65.50822	       1.62191
       0.35156	      55.93040	       1.67313
       0.46875	      63.41681	       1.67313
       0.58594	      57.26207	       1.55362
       0.70313	      58.20108	       1.67313
       0.82031	      51.01344	       1.82679
       0.93750	      59.60104	       1.59630
       1.05469	      59.32788	       1.61338
       1.17188	      54.91457	       1.55362
       1.28906	      65.82407	       1.75850
       1.40625	      60.53151	       1.80118
       1.52344	      55.50358	       1.61338
       1.64063	      57.33890	       1.52801
       1.75781	      56.84379	       1.72435
       1.87500	      67.90694	       1.58777
       1.99219	      62.74243	       1.63045
       2.10938	      61.23149	       1.74142
       2.22656	      52.68657	       1.75850
       2.34375	      59.41324	       1.83532
       2.46094	      57.04013	       1.56216
       2.57813	      59.75470	       1.73289
       2.69531	      63.10096	       1.89508
       2.81250	      60.18152	       1.63045
       2.92969	      61.76075	       1.81825
       3.04688	      58.88399	       1.52801
       3.16406	      65.76431	       1.89508
       3.28125	      61.06076	       1.56216
       3.39844	      57.80840	       1.55362
       3.51563	      64.52654	       1.54509
       3.63281	      56.39990	       1.57069
       3.75000	      59.40471	       1.63899
       3.86719	      56.79257	       1.59630
       3.98438	      62.63146	       1.70728
       4.10156	      64.99604	       1.69020
       4.21875	      66.83990	       1.59630
       4.33594	      66.05455	       1.79264
       4.45313	      58.87545	       1.82679
       4.57031	      59.10593	       1.60484
       4.68750	      54.82920	       1.67313
       4.80469	      64.85946	       1.54509
       4.92188	      55.63162	       1.74142
       5.03906	      62.69975	       1.82679
       5.15625	      63.57900	       1.78410
       5.27344	      57.58646	       1.42558
       5.39063	      55.88771	       1.65606
       5.50781	      62.45219	       1.80118
       5.62500	      60.75346	       1.56216
       5.74219	      61.24003	       1.72435
       5.85938	      63.45095	       1.86093
       5.97656	      65.68748	       1.54509
       6.09375	      56.77550	       1.72435
       6.21094	      55.89625	       1.88654
       6.32813	      61.98269	       1.86947
       6.44531	      59.68641	       1.73289
       6.56250	      73.46413	       1.73289
       6.67969	      63.46803	       1.65606
       6.79688	      59.30227	       1.72435
       6.91406	      65.22652	       1.63045
       7.03125	      63.85216	       1.55362
       7.14844	      71.00565	       1.55362
       7.26563	      65.68748	       1.67313
       7.38281	      58.87545	       1.58777
       7.50000	      67.84719	       1.69020
       7.61719	      63.89484	       1.80118
       7.73438	      60.37785	       1.59630
       7.85156	      57.39865	       1.63899
       7.96875	      68.35084	       1.78410
       8.08594	      57.64621	       1.62191
       8.20313	      53.65972	       1.63045
       8.32031	      61.32539	       1.98898
       8.43750	      67.87280	       1.79264
       8.55469	      64.52654	       1.77557
       8.67188	      59.72909	       1.79264
       8.78906	      63.72412	       1.71581
       8.90625	      64.31313	       1.74996
       9.02344	      63.90338	       1.62191
       9.14063	      63.33998	       1.65606
       9.25781	      61.24857	       1.65606
       9.37500	      70.35689	       1.79264
       9.49219	      57.70597	       1.51094
       9.60938	      61.61563	       1.43411
       9.72656	      70.16055	       1.92069
       9.84375	      61.35100	       1.72435
       9.96094	      75.45311	       1.76703
      10.07813	      66.18259	       1.67313
      10.19531	      72.14953	       1.75850
      10.31250	      61.58149	       1.70728
      10.42969	      58.88399	       1.52801
      10.54688	      59.11447	       1.66460
      10.66406	      52.66096	       1.61338
      10.78125	      61.42783	       1.65606
      10.89844	      63.16925	       1.62191
      11.01563	      58.99496	       1.68167
      11.13281	      70.06665	       1.60484
      11.25000	      63.26315	       1.79264
      11.36719	      61.19735	       1.68167
      11.48438	      58.78155	       1.90361
      11.60156	      65.00458	       1.83532
      11.71875	      62.49488	       1.63045
      11.83594	      57.17671	       1.73289
      11.95313	      66.17406	       1.75850
      12.07031	      59.28520	       1.58777
      12.18750	      75.63238	       1.98044
      12.30469	      68.06060	       1.63899
      12.42188	      60.32664	       1.56216
      12.53906	      63.58754	       1.66460
      12.65625	      56.76696	       1.55362
      12.77344	      52.59267	       1.72435
      12.89063	      64.79117	       1.59630
      13.00781	      57.97913	       1.69020
      13.12500	      55.03408	       1.60484
      13.24219	      62.11928	       1.66460
      13.35938	      60.37785	       1.53655
      13.47656	      57.37305	       1.78410
      13.59375	      54.74384	       1.73289
      13.71094	      60.18152	       1.68167
      13.82813	      58.24376	       1.84386
      13.94531	      65.25213	       1.71581
      14.06250	      58.67058	       1.80118
      14.17969	      54.05239	       1.59630
      14.29688	      51.19270	       1.58777
      14.41406	      62.18757	       1.84386
      14.53125	      56.64745	       1.71581
      14.64844	      63.83509	       1.53655
      14.76563	      64.34727	       1.68167
      14.88281	      59.13154	       1.65606
      15.00000	      68.02646	       1.53655
      15.11719	      59.80592	       1.86093
      15.23438	      63.72412	       1.63899
      15.35156	      73.05438	       1.57069
      15.46875	      57.41573	       1.90361
      15.58594	      52.25975	       1.57923
      15.70313	      60.48029	       1.77557
      15.82031	      54.83774	       1.69874
      15.93750	      61.61563	       1.74142
      16.05469	      59.66933	       1.97190
      16.17188	      64.08264	       1.74996
      16.28906	      60.42907	       1.72435
      16.40625	      58.75594	       1.65606
      16.52344	      55.96454	       1.56216
      16.64063	      61.70099	       1.62191
      16.75781	      64.99604	       1.57069
      16.87500	      56.87794	       1.69020
      16.99219	      60.27542	       1.63045
      17.10938	      55.15359	       1.70728
      17.22656	      60.75346	       1.63899
      17.34375	      63.47656	       1.57069
      17.46094	      61.29125	       1.74142
      17.57813	      59.68641	       1.46826
      17.69531	      60.06201	       1.73289
      17.81250	      65.38017	       1.74996
      17.92969	      61.59856	       1.56216
      18.04688	      60.84735	       1.63899
      18.16406	      60.59980	       1.50240
      18.28125	      62.11074	       1.82679
      18.39844	      62.73389	       1.74996
      18.51563	      62.40951	       1.79264
      18.63281	      66.43869	       1.79264
      18.75000	      59.95103	       1.62191
      18.86719	      63.70704	       1.63045
      18.98438	      63.91192	       1.49387
      19.10156	      63.85216	       1.69020
      19.21875	      64.85092	       1.60484
      19.33594	      61.90587	       1.53655
      19.45313	      62.73389	       1.69020
      19.57031	      57.30476	       1.84386
      19.68750	      59.02057	       1.65606
      19.80469	      67.75329	       1.80971
      19.92188	      65.55944	       1.73289
      20.03906	      63.45949	       1.64752
      20.15625	      58.38887	       1.54509
      20.27344	      59.33641	       1.64752
      20.39063	      52.88291	       1.95483
      20.50781	      51.51709	       1.63899
      20.62500	      65.23505	       1.85240
      20.74219	      59.07178	       1.53655
      20.85938	      56.34868	       1.88654
      20.97656	      58.45717	       1.71581
      21.09375	      58.29498	       1.68167
      21.21094	      61.02662	       1.58777
      21.32813	      66.18259	       1.70728
      21.44531	      58.28644	       1.89508
      21.56250	      55.41821	       1.73289
      21.67969	      61.62416	       1.58777
      21.79688	      61.27417	       1.73289
      21.91406	      61.18027	       1.65606
      22.03125	      66.72039	       1.61338
      22.14844	      64.69727	       1.72435
      22.26563	      65.07287	       1.57923
      22.38281	      62.31561	       1.54509
      22.50000	      65.53383	       1.59630
      22.61719	      56.77550	       1.92922
      22.73438	      60.81321	       1.80971
      22.85156	      60.78760	       1.74996
      22.96875	      55.99015	       1.86093
      23.08594	      60.07055	       1.79264
      23.20313	      57.96206	       1.68167
      23.32031	      65.20091	       1.70728
      23.43750	      70.35689	       1.77557
      23.55469	      59.70348	       1.62191
      23.67188	      60.69370	       1.91215
      23.78906	      57.25354	       1.71581
      23.90625	      68.06060	       1.74996
      24.02344	      58.17546	       1.70728
      24.14063	      61.46198	       1.59630
      24.25781	      63.85216	       1.68167
      24.37500	      64.97897	       1.69020
      24.49219	      68.83741	       1.62191
      24.60938	      66.46429	       1.51094
      24.72656	      56.66453	       1.72435
      24.84375	      61.94855	       1.76703
      24.96094	      67.32647	       1.78410
      25.07813	      63.74973	       1.87800
      25.19531	      64.80824	       2.02312
      25.31250	      58.63643	       1.54509
      25.42969	      62.58024	       1.72435
      25.54688	      65.94358	       1.87800
      25.66406	      59.62665	       1.91215
      25.78125	      57.00598	       1.69874
      25.89844	      63.66436	       1.55362
      26.01563	      61.79490	       1.77557
      26.13281	      62.04245	       1.56216
      26.25000	      59.17422	       1.54509
      26.36719	      57.32183	       1.63045
      26.48438	      50.86832	       1.57069
      26.60156	      58.07303	       1.79264
      26.71875	      54.04386	       1.80118
      26.83594	      59.62665	       1.49387
      26.95313	      65.40578	       1.80971
      27.07031	      58.77301	       1.82679
      27.18750	      57.88523	       1.70728
      27.30469	      59.27666	       1.72435
      27.42188	      62.52048	       1.39143
      27.53906	      69.28984	       1.69020
      27.65625	      57.51817	       1.61338
      27.77344	      57.73158	       1.77557
      27.89063	      62.30708	       1.82679
      28.00781	      57.22793	       1.73289
      28.12500	      50.10004	       1.69874
      28.24219	      58.44009	       1.77557
      28.35938	      63.05828	       1.74996
      28.47656	      59.50714	       1.79264
      28.59375	      56.63038	       1.69020
      28.71094	      73.46413	       1.60484
      28.82813	      62.97292	       1.73289
      28.94531	      59.75470	       1.76703
      29.06250	      65.88382	       1.75850
      29.17969	      65.70456	       1.47679
      29.29688	      71.97880	       1.73289
      29.41406	      71.07394	       1.56216
      29.53125	      59.41324	       1.68167
      29.64844	      53.65972	       1.63899
      29.76563	      62.78511	       1.71581
