ALV-5000/E-WIN Data
Date :	"20-Dec-12"
Time :	"14:30:02"
Samplename : 	""
SampMemo(0) : 	""
SampMemo(1) : 	""
SampMemo(2) : 	""
SampMemo(3) : 	""
SampMemo(4) : 	""
SampMemo(5) : 	""
SampMemo(6) : 	""
SampMemo(7) : 	""
SampMemo(8) : 	""
SampMemo(9) : 	""
Temperature [K] :	     298.16000
Viscosity [cp]  :	       0.89000
Refractive Index:	       1.33200
Wavelength [nm] :	     500.00000
Angle [°]       :	      90.00000
Duration [s]    :	        30
Runs            :	         6
Mode            :	"DUAL CROSS CH0"
MeanCR0 [kHz]   :	       8.70626
MeanCR1 [kHz]   :	       8.70630

"Correlation (Multi, Averaged)"
"Lag [ms]"	"Average(0)"	"Run  1"	"Run  2"	"Run  3"	"Run  4"	"Run  5"	"Run  6"	"Average(1)"	" 1,   8.600"	" 2,   8.610"	" 3,   8.693"	" 4,   8.705"	" 5,   8.661"	" 6,   8.706"	
  4.00000E-004	  1.32009E-001	  1.36084E-001	  1.20589E-001	  1.29887E-001	  1.39040E-001	  1.39208E-001	  1.27248E-001	  1.24977E-001	  1.30322E-001	  1.28310E-001	  1.22531E-001	  1.34583E-001	  1.11686E-001	  1.22428E-001	
  8.00000E-004	  1.28505E-001	  1.20928E-001	  1.36030E-001	  1.28049E-001	  1.23615E-001	  1.35276E-001	  1.27133E-001	  1.27756E-001	  1.23508E-001	  1.18719E-001	  1.30114E-001	  1.22129E-001	  1.35622E-001	  1.36443E-001	
  1.20000E-003	  1.22869E-001	  1.17286E-001	  1.35445E-001	  1.24487E-001	  1.32870E-001	  1.15156E-001	  1.11970E-001	  1.32055E-001	  1.49002E-001	  1.22345E-001	  1.33216E-001	  1.53436E-001	  1.09720E-001	  1.24611E-001	
  1.60000E-003	  1.12917E-001	  1.31854E-001	  1.09243E-001	  1.03576E-001	  1.04534E-001	  1.18163E-001	  1.10132E-001	  1.23552E-001	  1.29500E-001	  1.42230E-001	  1.14948E-001	  1.36526E-001	  1.05789E-001	  1.12320E-001	
  2.00000E-003	  1.13176E-001	  1.13174E-001	  9.40368E-002	  1.12998E-001	  1.23158E-001	  1.07178E-001	  1.28511E-001	  1.13481E-001	  1.08000E-001	  1.19421E-001	  1.10582E-001	  1.23500E-001	  1.07870E-001	  1.11515E-001	
  2.40000E-003	  1.18273E-001	  1.19636E-001	  9.70781E-002	  1.32760E-001	  1.15617E-001	  1.27066E-001	  1.17484E-001	  1.18195E-001	  1.11054E-001	  1.24216E-001	  1.36548E-001	  9.98488E-002	  1.20358E-001	  1.17144E-001	
  2.80000E-003	  1.09101E-001	  1.13291E-001	  1.23865E-001	  1.13113E-001	  1.18816E-001	  9.42270E-002	  9.12926E-002	  1.10259E-001	  1.16576E-001	  1.12285E-001	  1.11961E-001	  1.03848E-001	  1.11917E-001	  1.04968E-001	
  3.20000E-003	  1.13882E-001	  1.31267E-001	  1.04213E-001	  1.16559E-001	  1.25329E-001	  8.74047E-002	  1.18517E-001	  1.05380E-001	  1.15871E-001	  1.08776E-001	  9.88625E-002	  1.04876E-001	  1.10298E-001	  9.35952E-002	
  3.60000E-003	  1.01705E-001	  1.06360E-001	  9.63762E-002	  1.13572E-001	  1.07962E-001	  1.09259E-001	  7.67037E-002	  1.01779E-001	  9.51939E-002	  1.08776E-001	  8.76027E-002	  1.18359E-001	  8.50907E-002	  1.15651E-001	
  4.00000E-003	  9.93575E-002	  1.12469E-001	  8.50300E-002	  9.13973E-002	  1.19730E-001	  1.01281E-001	  8.62382E-002	  1.15942E-001	  9.67212E-002	  1.06554E-001	  1.16097E-001	  1.34126E-001	  1.28684E-001	  1.13468E-001	
  4.40000E-003	  9.38434E-002	  8.75622E-002	  9.87157E-002	  9.09377E-002	  8.84234E-002	  1.04865E-001	  9.25562E-002	  9.78479E-002	  8.57952E-002	  1.22813E-001	  9.08198E-002	  1.01448E-001	  7.65339E-002	  1.09677E-001	
  4.80000E-003	  1.06709E-001	  1.05890E-001	  1.17899E-001	  1.05874E-001	  1.04762E-001	  1.07872E-001	  9.79552E-002	  1.02405E-001	  8.74399E-002	  1.09946E-001	  9.36922E-002	  1.23729E-001	  1.06830E-001	  9.27911E-002	
  5.20000E-003	  9.47794E-002	  1.06947E-001	  9.19313E-002	  9.12824E-002	  9.45934E-002	  9.58458E-002	  8.80761E-002	  1.08866E-001	  1.23978E-001	  9.87166E-002	  1.03573E-001	  1.11617E-001	  9.97760E-002	  1.15536E-001	
  5.60000E-003	  9.57122E-002	  9.08518E-002	  8.86561E-002	  7.78395E-002	  1.02591E-001	  1.08912E-001	  1.05422E-001	  1.10310E-001	  1.27150E-001	  1.03629E-001	  1.09203E-001	  1.01448E-001	  1.08911E-001	  1.11515E-001	
  6.00000E-003	  1.00943E-001	  1.09649E-001	  8.59658E-002	  9.67974E-002	  9.33365E-002	  1.17932E-001	  1.01976E-001	  9.85434E-002	  9.68387E-002	  9.60262E-002	  1.17476E-001	  9.43644E-002	  1.11455E-001	  7.51005E-002	
  6.40000E-003	  9.89179E-002	  1.01950E-001	  1.00295E-001	  1.00638E-001	  8.84192E-002	  1.06889E-001	  9.53174E-002	  9.83098E-002	  1.05180E-001	  1.03278E-001	  9.60467E-002	  1.03678E-001	  8.57280E-002	  9.59488E-002	
  7.20000E-003	  9.31792E-002	  9.56056E-002	  1.03862E-001	  9.02972E-002	  9.57888E-002	  9.45160E-002	  7.90054E-002	  9.18563E-002	  7.37530E-002	  9.02352E-002	  8.57635E-002	  1.01735E-001	  1.11456E-001	  8.81948E-002	
  8.00000E-003	  9.90466E-002	  1.01715E-001	  1.06319E-001	  9.38590E-002	  9.33322E-002	  9.93148E-002	  9.97400E-002	  9.48417E-002	  9.94234E-002	  9.25162E-002	  8.57635E-002	  1.02649E-001	  9.65974E-002	  9.21005E-002	
  8.80000E-003	  8.93093E-002	  8.89677E-002	  9.48556E-002	  8.63908E-002	  9.81882E-002	  8.87922E-002	  7.86612E-002	  9.03982E-002	  8.55014E-002	  1.05500E-001	  8.90955E-002	  7.77983E-002	  9.49207E-002	  8.95733E-002	
  9.60000E-003	  9.37184E-002	  8.09200E-002	  1.07489E-001	  9.55254E-002	  1.04986E-001	  8.31845E-002	  9.02060E-002	  8.50458E-002	  9.04946E-002	  8.09360E-002	  7.80081E-002	  8.79673E-002	  7.39335E-002	  9.89355E-002	
  1.04000E-002	  8.55800E-002	  9.50182E-002	  8.37433E-002	  8.02448E-002	  8.42483E-002	  9.10475E-002	  7.91781E-002	  8.95093E-002	  9.03771E-002	  9.21068E-002	  9.70233E-002	  9.08808E-002	  7.48586E-002	  9.18090E-002	
  1.12000E-002	  8.73870E-002	  8.41512E-002	  8.43286E-002	  9.05279E-002	  8.48196E-002	  8.91974E-002	  9.12973E-002	  8.78906E-002	  8.89672E-002	  8.22811E-002	  9.20254E-002	  7.98549E-002	  9.68287E-002	  8.73864E-002	
  1.20000E-002	  8.20317E-002	  8.55611E-002	  8.29249E-002	  8.93215E-002	  8.31058E-002	  7.43965E-002	  7.68806E-002	  8.31134E-002	  8.72637E-002	  6.74257E-002	  9.35190E-002	  7.89409E-002	  8.07558E-002	  9.07752E-002	
  1.28000E-002	  7.83266E-002	  7.59200E-002	  8.20751E-002	  7.63907E-002	  8.88796E-002	  7.98103E-002	  6.68841E-002	  7.87967E-002	  7.35116E-002	  6.80372E-002	  8.90012E-002	  7.69678E-002	  7.86213E-002	  8.66410E-002	
  1.44000E-002	  7.55342E-002	  7.78585E-002	  7.77472E-002	  7.64194E-002	  8.24807E-002	  6.49515E-002	  7.37478E-002	  7.74855E-002	  7.88865E-002	  7.61668E-002	  7.75118E-002	  6.83127E-002	  7.98643E-002	  8.41712E-002	
  1.60000E-002	  7.75399E-002	  6.99870E-002	  8.07884E-002	  7.41502E-002	  8.63655E-002	  8.66905E-002	  6.72579E-002	  7.18283E-002	  6.63157E-002	  7.27161E-002	  8.79385E-002	  6.79414E-002	  7.02668E-002	  6.57915E-002	
  1.76000E-002	  7.25643E-002	  7.27479E-002	  7.29221E-002	  7.38630E-002	  8.06811E-002	  7.00104E-002	  6.51614E-002	  7.31035E-002	  7.22192E-002	  6.97626E-002	  8.29118E-002	  6.62275E-002	  6.83258E-002	  7.91742E-002	
  1.92000E-002	  6.75812E-002	  5.88852E-002	  7.13137E-002	  6.41544E-002	  6.99123E-002	  6.85072E-002	  7.27143E-002	  7.18963E-002	  6.76667E-002	  6.91485E-002	  7.27436E-002	  7.59394E-002	  7.08119E-002	  7.50675E-002	
  2.08000E-002	  7.15676E-002	  7.00168E-002	  6.92375E-002	  6.78310E-002	  7.91958E-002	  7.39135E-002	  6.92107E-002	  6.73802E-002	  6.56989E-002	  6.70722E-002	  7.62192E-002	  6.45422E-002	  6.70538E-002	  6.36951E-002	
  2.24000E-002	  6.55302E-002	  6.04125E-002	  6.98516E-002	  7.18523E-002	  6.19147E-002	  7.13407E-002	  5.78096E-002	  6.86851E-002	  5.88554E-002	  6.67798E-002	  6.91532E-002	  7.50254E-002	  7.19393E-002	  7.03577E-002	
  2.40000E-002	  6.49143E-002	  7.12798E-002	  5.86808E-002	  6.35804E-002	  6.08007E-002	  7.45784E-002	  6.05661E-002	  6.31679E-002	  6.20275E-002	  6.56978E-002	  6.06222E-002	  6.35424E-002	  6.07230E-002	  6.63946E-002	
  2.56000E-002	  6.17292E-002	  6.25024E-002	  6.00221E-002	  6.02279E-002	  5.83823E-002	  6.56338E-002	  6.36064E-002	  5.97687E-002	  6.07506E-002	  5.98897E-002	  5.46945E-002	  6.39373E-002	  6.11195E-002	  5.82209E-002	
  2.88000E-002	  5.82477E-002	  5.69659E-002	  6.60168E-002	  5.50863E-002	  5.23124E-002	  6.16440E-002	  5.74607E-002	  5.98825E-002	  5.62862E-002	  5.65853E-002	  5.67194E-002	  6.39474E-002	  6.07871E-002	  6.49697E-002	
  3.20000E-002	  5.73325E-002	  5.37053E-002	  6.17767E-002	  5.48278E-002	  5.44690E-002	  6.10514E-002	  5.81647E-002	  5.59685E-002	  5.86800E-002	  6.27304E-002	  4.95386E-002	  5.37357E-002	  5.44995E-002	  5.66270E-002	
  3.52000E-002	  5.25795E-002	  5.06507E-002	  4.68188E-002	  5.13531E-002	  5.35978E-002	  5.46044E-002	  5.84519E-002	  5.45215E-002	  5.44358E-002	  5.19838E-002	  5.79833E-002	  5.11649E-002	  5.44748E-002	  5.70865E-002	
  3.84000E-002	  5.06458E-002	  4.35429E-002	  4.77102E-002	  5.34647E-002	  5.32550E-002	  5.18437E-002	  5.40580E-002	  5.06636E-002	  5.39218E-002	  4.88402E-002	  4.84040E-002	  5.02222E-002	  5.54721E-002	  4.71213E-002	
  4.16000E-002	  4.83894E-002	  4.66118E-002	  4.28990E-002	  5.80174E-002	  5.02843E-002	  4.38795E-002	  4.86442E-002	  4.77386E-002	  4.66378E-002	  5.01269E-002	  4.57471E-002	  4.56520E-002	  5.06011E-002	  4.76670E-002	
  4.48000E-002	  4.82244E-002	  4.62010E-002	  4.43611E-002	  4.68435E-002	  4.58854E-002	  5.35059E-002	  5.25495E-002	  4.94993E-002	  5.16603E-002	  5.40600E-002	  4.35929E-002	  4.87512E-002	  4.66551E-002	  5.22762E-002	
  4.80000E-002	  4.50726E-002	  4.46443E-002	  4.10860E-002	  4.81074E-002	  4.86419E-002	  3.94276E-002	  4.85285E-002	  4.41503E-002	  3.77384E-002	  4.57113E-002	  4.27599E-002	  4.50521E-002	  4.55710E-002	  4.80690E-002	
  5.12000E-002	  4.48525E-002	  4.31939E-002	  4.50686E-002	  4.15112E-002	  4.87733E-002	  4.54106E-002	  4.51574E-002	  4.21616E-002	  3.63422E-002	  4.61196E-002	  4.04241E-002	  4.39433E-002	  4.38934E-002	  4.22468E-002	
  5.76000E-002	  4.07884E-002	  3.91104E-002	  4.03167E-002	  4.22509E-002	  4.47878E-002	  3.69920E-002	  4.12728E-002	  3.89510E-002	  3.40806E-002	  3.17909E-002	  4.42371E-002	  3.69592E-002	  4.31851E-002	  4.34530E-002	
  6.40000E-002	  3.75047E-002	  3.50201E-002	  3.82547E-002	  3.87107E-002	  3.84032E-002	  3.46594E-002	  3.99800E-002	  4.06385E-002	  3.56626E-002	  3.66305E-002	  3.97922E-002	  4.52430E-002	  4.33586E-002	  4.31442E-002	
  7.04000E-002	  3.52579E-002	  3.43515E-002	  3.11415E-002	  3.87965E-002	  3.70103E-002	  3.49633E-002	  3.52845E-002	  3.81316E-002	  4.00356E-002	  4.02492E-002	  3.35879E-002	  3.78376E-002	  4.05473E-002	  3.65318E-002	
  7.68000E-002	  3.45989E-002	  3.09448E-002	  3.28599E-002	  3.50122E-002	  3.79529E-002	  3.73193E-002	  3.35044E-002	  3.49347E-002	  3.35226E-002	  3.86117E-002	  3.59689E-002	  3.36886E-002	  3.38479E-002	  3.39687E-002	
  8.32000E-002	  3.07647E-002	  2.76846E-002	  2.71431E-002	  3.61826E-002	  3.19544E-002	  3.14289E-002	  3.01946E-002	  3.20573E-002	  3.37796E-002	  2.61252E-002	  3.35561E-002	  3.12178E-002	  3.26193E-002	  3.50456E-002	
  8.96000E-002	  3.05788E-002	  3.19948E-002	  3.20773E-002	  3.23472E-002	  2.76621E-002	  3.15875E-002	  2.78037E-002	  3.13168E-002	  3.36988E-002	  2.78286E-002	  3.29529E-002	  2.57365E-002	  3.44839E-002	  3.32004E-002	
  9.60000E-002	  2.98678E-002	  3.06589E-002	  3.04470E-002	  2.81245E-002	  2.97826E-002	  2.92528E-002	  3.09408E-002	  2.76174E-002	  3.15694E-002	  2.74338E-002	  2.80340E-002	  2.76217E-002	  2.34957E-002	  2.75501E-002	
  1.02400E-001	  2.81006E-002	  2.91551E-002	  2.77491E-002	  2.92301E-002	  2.69025E-002	  2.78259E-002	  2.77409E-002	  2.62606E-002	  2.63212E-002	  2.49950E-002	  2.74999E-002	  2.52239E-002	  2.51391E-002	  2.83845E-002	
  1.15200E-001	  2.53565E-002	  2.44672E-002	  2.48939E-002	  2.73240E-002	  2.50351E-002	  2.68137E-002	  2.36049E-002	  2.50247E-002	  2.54915E-002	  2.13140E-002	  2.31123E-002	  2.98799E-002	  2.73506E-002	  2.29997E-002	
  1.28000E-001	  2.43493E-002	  2.40009E-002	  2.43748E-002	  2.42577E-002	  2.35180E-002	  2.40200E-002	  2.59244E-002	  2.25137E-002	  2.31859E-002	  2.04477E-002	  2.52379E-002	  2.15141E-002	  2.31155E-002	  2.15813E-002	
  1.40800E-001	  2.12751E-002	  2.10492E-002	  2.20833E-002	  2.31877E-002	  1.99724E-002	  2.08365E-002	  2.05216E-002	  2.26260E-002	  2.29803E-002	  2.01078E-002	  2.55790E-002	  2.26531E-002	  2.16412E-002	  2.27947E-002	
  1.53600E-001	  2.09274E-002	  2.18096E-002	  2.23510E-002	  2.26631E-002	  2.07588E-002	  1.83645E-002	  1.96173E-002	  2.03329E-002	  2.07078E-002	  2.03454E-002	  2.09149E-002	  1.84367E-002	  2.10381E-002	  2.05546E-002	
  1.66400E-001	  1.80790E-002	  1.75994E-002	  1.87976E-002	  1.72131E-002	  1.90770E-002	  1.71792E-002	  1.86078E-002	  1.95274E-002	  2.00947E-002	  1.94973E-002	  1.95721E-002	  2.10860E-002	  1.92819E-002	  1.76325E-002	
  1.79200E-001	  1.87790E-002	  2.10835E-002	  1.94698E-002	  1.76615E-002	  2.04878E-002	  1.67854E-002	  1.71862E-002	  1.88069E-002	  2.07225E-002	  1.72383E-002	  1.79491E-002	  2.02608E-002	  1.88732E-002	  1.77972E-002	
  1.92000E-001	  1.60302E-002	  2.11316E-002	  1.69723E-002	  1.36429E-002	  1.67879E-002	  1.24130E-002	  1.52337E-002	  1.85176E-002	  1.89896E-002	  1.93146E-002	  1.81466E-002	  1.98395E-002	  1.56825E-002	  1.91326E-002	
  2.04800E-001	  1.65450E-002	  1.63950E-002	  1.83632E-002	  1.82081E-002	  1.45373E-002	  1.69704E-002	  1.47959E-002	  1.55514E-002	  1.52183E-002	  1.60618E-002	  1.52502E-002	  1.50246E-002	  1.70263E-002	  1.47274E-002	
  2.30400E-001	  1.42810E-002	  1.55731E-002	  1.32472E-002	  1.56367E-002	  1.51505E-002	  1.51505E-002	  1.09278E-002	  1.41315E-002	  1.19160E-002	  1.24065E-002	  1.53144E-002	  1.52478E-002	  1.63651E-002	  1.35395E-002	
  2.56000E-001	  1.24304E-002	  1.19742E-002	  1.10412E-002	  1.49599E-002	  1.14910E-002	  1.19435E-002	  1.31723E-002	  1.17957E-002	  1.29642E-002	  1.16279E-002	  1.34963E-002	  1.05342E-002	  1.03611E-002	  1.17902E-002	
  2.81600E-001	  1.12916E-002	  1.09360E-002	  1.00392E-002	  1.25307E-002	  1.05376E-002	  1.27783E-002	  1.09277E-002	  1.10009E-002	  1.00801E-002	  1.27209E-002	  1.22002E-002	  9.66334E-003	  1.05346E-002	  1.08065E-002	
  3.07200E-001	  1.11390E-002	  1.14712E-002	  1.10207E-002	  1.10040E-002	  1.06584E-002	  1.17105E-002	  1.09689E-002	  1.06238E-002	  1.18937E-002	  1.11034E-002	  1.01483E-002	  1.08899E-002	  9.11627E-003	  1.05911E-002	
  3.32800E-001	  1.08963E-002	  1.07139E-002	  1.22282E-002	  1.20186E-002	  1.25396E-002	  9.24746E-003	  8.63013E-003	  8.75388E-003	  1.07152E-002	  1.00507E-002	  8.92442E-003	  5.77174E-003	  1.09895E-002	  6.07173E-003	
  3.58400E-001	  1.00410E-002	  1.06668E-002	  1.18708E-002	  8.66669E-003	  8.63192E-003	  8.66929E-003	  1.17408E-002	  9.69195E-003	  9.45446E-003	  1.12514E-002	  8.76681E-003	  1.01533E-002	  9.85127E-003	  8.67445E-003	
  3.84000E-001	  9.18208E-003	  7.80096E-003	  1.00019E-002	  9.74736E-003	  8.09967E-003	  9.79472E-003	  9.64786E-003	  9.49311E-003	  8.84687E-003	  1.07181E-002	  9.49062E-003	  7.11251E-003	  1.18828E-002	  8.90780E-003	
  4.09600E-001	  8.77588E-003	  1.04403E-002	  1.01643E-002	  8.04930E-003	  6.46259E-003	  9.37920E-003	  8.15955E-003	  9.28722E-003	  8.96742E-003	  8.94129E-003	  1.05146E-002	  7.89034E-003	  8.79076E-003	  1.06189E-002	
  4.60800E-001	  6.77137E-003	  7.03897E-003	  7.57569E-003	  7.07955E-003	  5.76600E-003	  5.91579E-003	  7.25221E-003	  8.15547E-003	  1.05803E-002	  7.42595E-003	  6.12736E-003	  8.00996E-003	  9.15916E-003	  7.63009E-003	
  5.12000E-001	  6.25119E-003	  4.82589E-003	  5.51232E-003	  6.44408E-003	  7.29839E-003	  7.07958E-003	  6.34688E-003	  7.17289E-003	  8.44572E-003	  4.73387E-003	  8.62147E-003	  7.06412E-003	  7.19909E-003	  6.97308E-003	
  5.63200E-001	  5.92290E-003	  6.74384E-003	  4.45464E-003	  4.96951E-003	  7.02693E-003	  5.48277E-003	  6.85970E-003	  6.37015E-003	  5.50291E-003	  6.63185E-003	  7.75353E-003	  5.78941E-003	  5.47051E-003	  7.07271E-003	
  6.14400E-001	  5.09683E-003	  5.60758E-003	  5.88606E-003	  3.87141E-003	  5.95909E-003	  4.99364E-003	  4.26317E-003	  4.83938E-003	  4.75122E-003	  5.24076E-003	  5.07612E-003	  3.86699E-003	  5.67626E-003	  4.42493E-003	
  6.65600E-001	  4.31359E-003	  2.37999E-003	  5.74493E-003	  3.97054E-003	  5.29615E-003	  2.90537E-003	  5.58451E-003	  4.90324E-003	  6.19127E-003	  4.03452E-003	  3.64922E-003	  5.41807E-003	  4.90530E-003	  5.22106E-003	
  7.16800E-001	  4.98948E-003	  5.88802E-003	  5.65467E-003	  4.10588E-003	  4.91619E-003	  2.84635E-003	  6.52575E-003	  4.72265E-003	  4.13629E-003	  6.11163E-003	  4.75535E-003	  4.91514E-003	  3.17254E-003	  5.24495E-003	
  7.68000E-001	  4.15321E-003	  2.71846E-003	  5.27047E-003	  2.95693E-003	  4.41125E-003	  4.43273E-003	  5.12945E-003	  4.88664E-003	  5.07338E-003	  4.30743E-003	  4.72000E-003	  4.66930E-003	  5.33353E-003	  5.21623E-003	
  8.19200E-001	  3.93820E-003	  3.47104E-003	  5.60178E-003	  3.96090E-003	  3.69505E-003	  3.92083E-003	  2.97959E-003	  3.90252E-003	  3.26840E-003	  3.64121E-003	  4.99022E-003	  2.73343E-003	  4.26629E-003	  4.51559E-003	
  9.21600E-001	  3.11008E-003	  3.05619E-003	  3.75382E-003	  2.46547E-003	  1.83514E-003	  3.70689E-003	  3.84295E-003	  3.00295E-003	  2.25675E-003	  2.10611E-003	  2.70463E-003	  2.51884E-003	  3.35447E-003	  5.07693E-003	
  1.02400E+000	  2.25913E-003	  1.83836E-003	  2.52075E-003	  1.67961E-003	  2.52403E-003	  3.05436E-003	  1.93766E-003	  2.82018E-003	  3.92972E-003	  2.61949E-003	  2.45107E-003	  3.60914E-003	  2.08661E-003	  2.22505E-003	
  1.12640E+000	  3.05794E-003	  2.33088E-003	  4.33810E-003	  2.72267E-003	  2.69462E-003	  3.98373E-003	  2.27764E-003	  3.03541E-003	  3.06049E-003	  4.60860E-003	  3.47327E-003	  1.25185E-003	  2.86214E-003	  2.95614E-003	
  1.22880E+000	  2.79730E-003	  1.59580E-003	  3.09442E-003	  3.01481E-003	  2.53688E-003	  3.32814E-003	  3.21374E-003	  2.30688E-003	  2.32022E-003	  1.52177E-003	  2.89816E-003	  2.27074E-003	  3.49979E-003	  1.33061E-003	
  1.33120E+000	  2.49911E-003	  9.67587E-004	  3.35128E-003	  3.42230E-003	  2.81964E-003	  2.31396E-003	  2.11988E-003	  2.40134E-003	  2.76569E-003	  2.11389E-003	  3.29252E-003	  2.96231E-003	  7.66097E-004	  2.50756E-003	
  1.43360E+000	  1.79398E-003	 -3.21176E-004	  3.05246E-003	  3.18071E-003	  2.75243E-003	 -1.78946E-004	  2.27842E-003	  2.11012E-003	  2.11278E-003	  2.38909E-003	  2.92857E-003	  1.08546E-003	  1.56733E-003	  2.57747E-003	
  1.53600E+000	  1.71929E-003	 -7.16967E-005	  3.39653E-003	  1.42181E-004	  2.91713E-003	  7.66736E-004	  3.16485E-003	  1.73771E-003	  1.78906E-003	  2.34479E-003	  1.76086E-003	  9.50668E-004	  1.58243E-003	  1.99841E-003	
  1.63840E+000	  2.00533E-003	  1.58921E-003	  2.86105E-003	  1.88998E-003	  1.91874E-003	  8.89378E-004	  2.88360E-003	  1.79483E-003	  2.28508E-003	  2.13134E-003	  1.62343E-003	  1.04169E-003	  2.29742E-003	  1.39001E-003	
  1.84320E+000	  1.62821E-003	  2.62859E-003	  1.67967E-003	  8.45939E-004	  1.85590E-003	  1.21677E-003	  1.54240E-003	  1.79006E-003	  2.10113E-003	  2.27053E-003	  1.09353E-003	  1.24570E-003	  1.11679E-003	  2.91267E-003	
  2.04800E+000	  1.28249E-003	  1.24065E-003	  1.76317E-003	  1.55474E-003	  2.02848E-003	  7.32662E-005	  1.03465E-003	  2.05534E-003	  3.10644E-003	  1.64724E-003	  2.67874E-003	  2.06337E-003	  1.82583E-003	  1.01042E-003	
  2.25280E+000	  1.64808E-003	  1.58238E-003	  6.19352E-004	  2.60663E-003	  1.68338E-003	  9.06740E-004	  2.49000E-003	  1.45771E-003	  2.31374E-003	  7.39402E-004	  1.85074E-003	  1.90052E-003	  3.88299E-004	  1.55355E-003	
  2.45760E+000	  1.48071E-003	  1.63108E-003	  1.37547E-003	  1.77238E-003	  5.28903E-004	  1.98169E-003	  1.59473E-003	  1.15569E-003	  2.47885E-004	  2.08422E-003	  1.03990E-003	  6.73232E-004	  1.59953E-003	  1.28940E-003	
  2.66240E+000	  1.49979E-003	  1.72799E-003	  1.14172E-003	  1.64088E-003	  1.06031E-003	  1.12392E-003	  2.30388E-003	  7.74884E-004	  1.19491E-003	  6.40650E-004	  6.79404E-004	  1.27746E-003	  1.21410E-003	 -3.57219E-004	
  2.86720E+000	  6.67594E-004	  9.90629E-004	  7.55749E-006	  1.40136E-003	  4.31767E-004	  1.32801E-004	  1.04145E-003	  5.92860E-004	  8.92947E-004	  1.08196E-003	  2.86638E-005	  2.34585E-004	 -1.96516E-004	  1.51552E-003	
  3.07200E+000	  9.07653E-004	  2.17244E-003	  3.51690E-004	  2.24829E-003	  7.78160E-004	  2.57872E-004	 -3.62533E-004	  9.86766E-004	  1.04796E-003	  1.07214E-003	  5.57096E-004	  1.07580E-003	  1.70279E-003	  4.64808E-004	
  3.27680E+000	  9.67648E-004	  1.71359E-003	  9.67878E-004	  6.39397E-004	  5.82269E-004	  1.09204E-003	  8.10723E-004	  5.37216E-004	  4.38031E-004	  7.08908E-004	  5.12296E-005	  5.40822E-004	  1.01929E-003	  4.65022E-004	
  3.68640E+000	  9.04630E-004	  7.95001E-004	  3.95010E-004	  8.01831E-004	  1.30060E-003	  1.02759E-003	  1.10775E-003	  9.43107E-004	  1.48202E-004	  1.22500E-003	  6.43588E-004	  1.43278E-003	  1.19696E-003	  1.01211E-003	
  4.09600E+000	  9.85334E-004	  9.63706E-004	  1.49459E-003	  1.38260E-003	  9.40057E-004	 -7.71915E-005	  1.20824E-003	  6.42241E-004	  6.06277E-004	  4.41799E-004	  3.26949E-005	  1.38530E-003	  7.31090E-004	  6.56282E-004	
  4.50560E+000	  7.92445E-004	  1.27131E-003	  1.68134E-004	  1.44914E-003	  6.06740E-004	  5.34853E-004	  7.24497E-004	  6.73632E-004	  2.62341E-004	  1.29230E-003	  3.58020E-004	  5.13370E-004	  1.16320E-003	  4.52566E-004	
  4.91520E+000	  7.34686E-004	  3.38639E-004	  1.44545E-003	  4.03324E-004	  1.21843E-003	  3.33129E-004	  6.69142E-004	  5.23829E-004	  6.67052E-004	  1.27726E-004	  1.35210E-004	  1.49712E-003	  9.34717E-005	  6.22391E-004	
  5.32480E+000	  8.49664E-004	  7.47343E-004	  3.45208E-004	  1.19817E-003	  7.43234E-004	  7.15433E-004	  1.34860E-003	 -2.13500E-005	 -7.18194E-004	 -7.69829E-004	 -3.88638E-004	  3.05023E-004	  5.39556E-004	  9.03982E-004	
  5.73440E+000	  4.83298E-004	  8.68623E-004	  4.21253E-004	 -1.91949E-004	  1.39157E-004	  3.92871E-004	  1.26983E-003	  6.21660E-005	 -5.14886E-004	 -3.86214E-004	  4.10918E-004	  2.89147E-004	 -9.38687E-005	  6.67899E-004	
  6.14400E+000	  5.43153E-004	  4.73581E-004	  4.96547E-004	  4.85959E-004	  7.74926E-004	  5.18693E-005	  9.76036E-004	  7.21487E-004	 -1.59437E-004	  5.57823E-004	  6.92350E-004	  1.54693E-003	  2.33553E-004	  1.45770E-003	
  6.45120E+000	  5.88050E-004	  1.77265E-004	  5.53024E-004	  9.94450E-004	  1.25181E-003	 -2.03912E-004	  7.55664E-004	  2.18209E-004	  5.54120E-004	  2.51716E-004	  8.56912E-004	  7.22200E-005	 -8.79998E-005	 -3.37712E-004	
  7.27040E+000	  3.30418E-004	  1.75300E-004	  1.53920E-004	  6.32260E-004	  6.47717E-005	  6.48514E-004	  3.07740E-004	  6.32566E-004	  9.02957E-004	  6.34361E-004	  4.90444E-004	  7.84583E-004	  6.19790E-004	  3.63263E-004	
  8.08960E+000	  2.61484E-004	  2.17049E-004	  6.82939E-004	  6.41544E-004	 -1.76761E-004	  1.87910E-004	  1.62262E-005	  8.34870E-004	  9.88237E-004	  7.63700E-004	  3.92255E-004	  7.69225E-004	  1.11444E-003	  9.81360E-004	
  8.90880E+000	  2.20214E-004	  5.96392E-004	  5.80510E-005	  6.20812E-004	 -3.82935E-005	  4.30315E-006	  8.00175E-005	 -2.34347E-005	 -1.44261E-004	  6.16711E-005	  2.20926E-004	 -3.60130E-004	 -2.04720E-004	  2.85904E-004	
  9.72800E+000	  2.69277E-005	  5.15807E-004	 -6.21296E-004	  9.47960E-004	 -9.38423E-004	  1.63701E-004	  9.38179E-005	  5.50690E-005	 -2.54972E-004	 -6.08929E-005	  2.78573E-004	  5.73659E-004	 -1.12392E-004	 -9.35605E-005	
  1.05472E+001	  2.18899E-004	  5.86476E-005	 -4.54698E-004	  9.11460E-004	  1.49418E-004	  1.19019E-004	  5.29550E-004	  5.94242E-004	  9.65274E-004	 -2.49348E-004	  3.33360E-004	  1.82290E-003	  2.48138E-004	  4.45129E-004	
  1.13664E+001	  1.95436E-006	 -1.39882E-004	  5.54025E-004	 -5.43650E-006	  1.88009E-005	 -3.89274E-004	 -2.65080E-005	  1.07587E-004	  3.41094E-004	  3.60961E-005	  4.25733E-004	  1.92428E-004	 -4.16447E-005	 -3.08185E-004	
  1.21856E+001	  3.11603E-004	 -4.28664E-005	  5.55462E-004	  7.86097E-004	 -7.98370E-005	 -7.68751E-005	  7.27640E-004	  2.55055E-004	 -2.56581E-004	  3.50673E-004	  1.00924E-003	  3.65505E-004	  4.17354E-004	 -3.55862E-004	
  1.30048E+001	  1.29588E-004	  6.45502E-005	  4.09356E-004	  2.04641E-004	  3.37260E-004	 -3.00296E-004	  6.20157E-005	  2.84222E-004	 -6.03214E-004	  4.73249E-004	  7.91865E-004	  4.77120E-004	  3.97847E-004	  1.68467E-004	
  1.46432E+001	 -5.81045E-005	 -2.98315E-004	 -7.38101E-005	 -1.46264E-005	 -2.59096E-004	 -8.72790E-005	  3.84499E-004	  3.74824E-004	  3.01655E-004	  3.58740E-004	  2.99656E-004	  5.74166E-004	  5.75741E-004	  1.38985E-004	
  1.62816E+001	  1.99347E-004	  1.37829E-004	  3.63568E-004	  2.16257E-004	  2.63333E-005	  4.27559E-004	  2.45385E-005	  4.49447E-004	  5.63228E-004	  3.42927E-004	  1.10462E-004	  9.24057E-004	  4.92363E-004	  2.63645E-004	
  1.79200E+001	  2.38119E-004	  2.77965E-004	  9.17071E-005	  6.34869E-004	  5.19839E-005	  3.22987E-004	  4.92031E-005	  2.67213E-004	  3.40150E-004	  9.53827E-005	 -3.16211E-004	  3.06915E-004	  7.91546E-004	  3.85495E-004	
  1.95584E+001	  2.87735E-004	  4.51103E-004	  3.28682E-004	 -2.22229E-004	  7.11217E-004	  5.49301E-004	 -9.16669E-005	  1.93717E-004	  4.34041E-004	  6.29703E-004	 -2.97583E-005	 -2.30905E-004	  1.00783E-004	  2.58436E-004	
  2.11968E+001	  1.69786E-004	  3.20095E-004	  2.54630E-004	 -3.65069E-005	  4.85321E-004	  1.45438E-004	 -1.50263E-004	  2.30367E-004	  5.91294E-004	  1.30508E-004	  2.64777E-005	 -7.13985E-005	  9.17101E-004	 -2.11783E-004	
  2.28352E+001	  8.84223E-005	  4.43944E-004	 -2.40015E-004	  2.53368E-004	 -5.02891E-004	 -2.37009E-005	  5.99828E-004	  1.86796E-004	  7.81937E-004	 -4.03039E-004	  1.66333E-004	  2.87477E-004	  2.37704E-004	  5.03673E-005	
  2.44736E+001	  2.46675E-004	 -4.96130E-004	  6.73622E-004	  4.19378E-004	  1.19577E-004	  1.75593E-004	  5.88010E-004	  1.25383E-004	  3.23139E-004	 -3.40497E-005	  4.21498E-004	 -1.45750E-004	 -5.48737E-005	  2.42332E-004	
  2.61120E+001	  1.60118E-004	 -2.75463E-004	  6.37840E-004	  2.26984E-004	 -6.10146E-005	 -1.07838E-004	  5.40200E-004	 -2.33305E-005	  4.01735E-004	 -2.22119E-004	 -7.15960E-005	 -3.29739E-004	  2.09022E-004	 -1.27286E-004	
  2.93888E+001	  1.79676E-004	  3.45932E-004	  4.31843E-004	  3.61797E-006	  1.41704E-004	  6.20915E-005	  9.28675E-005	  1.64243E-004	 -1.00636E-004	  4.98507E-005	 -1.65737E-005	  6.21338E-004	  4.24245E-004	  7.23640E-006	
  3.26656E+001	  2.78963E-004	  7.17549E-004	 -6.26694E-005	 -5.89629E-005	  5.70317E-004	  3.52671E-004	  1.54875E-004	  3.30300E-004	  7.11304E-004	  2.83037E-004	  2.84851E-005	  4.81043E-004	  5.38979E-005	  4.24030E-004	
  3.59424E+001	  1.72374E-005	 -1.49124E-005	  2.99369E-004	 -3.78235E-004	  4.26462E-004	 -3.79938E-004	  1.50678E-004	  1.99855E-004	  3.05474E-004	  3.31066E-004	  1.44125E-004	  2.92506E-004	 -1.57468E-004	  2.83429E-004	
  3.92192E+001	  1.62643E-004	  2.17439E-004	 -2.58968E-004	  3.72914E-004	  2.84897E-004	 -3.19530E-005	  3.91527E-004	  2.47023E-004	  2.89972E-004	 -9.79063E-005	  2.61121E-004	  8.44775E-004	  9.34827E-006	  1.74826E-004	
  4.24960E+001	  1.39071E-004	 -2.68116E-004	  4.65756E-004	 -1.13854E-004	  2.95427E-004	  2.27892E-004	  2.27323E-004	  1.75749E-005	 -1.74207E-004	  1.31307E-004	 -3.20710E-004	  1.50527E-004	  9.58533E-005	  2.22680E-004	
  4.57728E+001	  1.81782E-004	  9.27726E-004	 -4.40113E-004	 -2.44926E-005	  2.75252E-005	  2.11485E-004	  3.88561E-004	  3.63499E-004	  8.14579E-004	  3.26362E-004	 -5.45280E-005	  5.05858E-004	 -1.84813E-006	  5.90568E-004	
  4.90496E+001	  2.00019E-004	  2.69315E-004	  1.49762E-004	  9.15212E-005	 -1.32852E-004	  7.08389E-004	  1.13980E-004	  1.16018E-004	  6.16584E-004	 -1.13903E-004	 -3.49736E-004	  6.95775E-005	  2.42969E-004	  2.30616E-004	
  5.23264E+001	  1.54065E-004	  9.90419E-005	  1.67555E-004	 -7.50157E-005	 -1.37314E-004	  3.28998E-004	  5.41123E-004	  8.18827E-005	  6.49464E-004	 -2.32655E-004	 -1.68054E-004	 -2.00553E-004	 -1.16244E-004	  5.59339E-004	
  5.88800E+001	  2.15103E-005	  1.29088E-004	  2.51928E-004	  8.39435E-005	 -3.20338E-004	  2.44537E-004	 -2.60097E-004	  7.54370E-005	  5.77027E-005	 -1.28883E-005	  2.28019E-004	  3.83372E-005	  6.24685E-006	  1.35205E-004	
  6.54336E+001	  7.05290E-005	  2.54760E-005	 -8.87749E-005	  1.32593E-004	  2.43703E-004	  3.62682E-004	 -2.52505E-004	  1.05553E-004	  2.64474E-004	  8.48721E-006	  2.18594E-004	 -9.47652E-005	  2.56737E-004	 -2.02087E-005	
  7.19872E+001	  4.84806E-005	  7.46363E-005	 -1.00664E-004	  9.83532E-005	  4.56293E-005	  6.57490E-005	  1.07180E-004	  1.70503E-004	  2.27650E-004	  2.88497E-004	  2.40479E-004	  2.68260E-004	  8.36293E-005	 -8.55001E-005	
  7.85408E+001	 -4.91189E-005	  1.79419E-004	 -1.05724E-005	 -3.51415E-005	 -2.04335E-004	 -1.52677E-004	 -7.14062E-005	  5.54755E-005	  2.04495E-004	 -1.79154E-004	  1.67080E-004	 -2.22143E-004	 -2.05380E-005	  3.83113E-004	
  8.50944E+001	  1.21617E-004	  1.89878E-004	  1.45938E-004	  3.55913E-004	 -6.71315E-005	 -2.47236E-005	  1.29826E-004	  1.16591E-004	  9.12670E-005	 -9.01628E-006	  1.86870E-004	  1.54989E-004	  3.69903E-005	  2.38445E-004	
  9.16480E+001	  1.18378E-004	  2.98716E-004	 -1.32341E-004	  2.88274E-004	  1.38896E-004	  2.26674E-006	  1.14455E-004	  2.32246E-005	 -1.61339E-004	  2.53091E-004	 -1.02946E-004	 -9.68623E-005	  3.02599E-004	 -5.51954E-005	
  9.82016E+001	  3.90113E-005	  2.18733E-004	 -1.72052E-004	  1.14055E-004	  9.05097E-005	  1.47697E-004	 -1.64875E-004	  6.97036E-005	  1.08822E-004	 -2.16452E-005	 -6.49710E-005	  6.99830E-005	  2.63009E-004	  6.30245E-005	
  1.04755E+002	 -2.21992E-005	  1.13793E-004	 -1.10851E-004	 -1.77402E-005	  5.80625E-005	  7.46977E-005	 -2.51157E-004	  1.79889E-004	  3.16104E-004	  5.75965E-005	  3.25349E-004	  4.08464E-005	  1.93505E-004	  1.45934E-004	
  1.17862E+002	  7.55136E-005	  1.97964E-004	 -4.82497E-005	  7.95377E-005	  2.06931E-004	  6.80971E-005	 -5.11976E-005	  1.93458E-004	  2.59872E-004	  1.44828E-004	  2.10428E-004	  2.48788E-004	  1.39714E-004	  1.57116E-004	
  1.30970E+002	 -1.41454E-005	  1.09997E-004	 -6.75520E-005	  8.83987E-005	 -1.72028E-004	 -1.03222E-004	  5.95333E-005	  6.36021E-005	 -1.69433E-004	  7.63531E-005	  2.28950E-004	 -1.42226E-005	 -4.07812E-005	  3.00746E-004	
  1.44077E+002	  1.91158E-006	  1.46815E-004	 -7.84850E-005	  9.23729E-005	  4.75202E-005	 -3.32002E-004	  1.35249E-004	 -5.55990E-005	  1.37767E-004	 -2.03817E-005	 -1.26898E-004	  3.27264E-005	 -3.08956E-004	 -4.78510E-005	
  1.57184E+002	  9.32773E-006	  7.56514E-005	  5.21190E-005	 -4.19631E-005	 -1.50167E-004	  1.18477E-004	  1.84899E-006	 -6.77768E-005	  1.04398E-004	 -1.39957E-004	  5.81010E-006	  5.15007E-005	 -2.51997E-004	 -1.76415E-004	
  1.70291E+002	  7.68563E-005	  2.59709E-004	 -1.57065E-004	  2.36120E-004	  8.21247E-005	 -2.10027E-005	  6.12515E-005	  5.44605E-005	  2.80761E-004	  1.40528E-004	 -1.87978E-004	  9.25434E-005	 -8.55750E-005	  8.64837E-005	
  1.83398E+002	 -7.75440E-005	  2.02965E-005	 -6.66641E-005	  3.30791E-005	 -1.80043E-004	 -8.23190E-005	 -1.89613E-004	  1.47106E-004	  2.85226E-004	  2.29085E-004	 -1.11217E-004	  1.00290E-004	  3.01207E-004	  7.80441E-005	
  1.96506E+002	  3.51738E-005	  2.48250E-004	 -1.52608E-004	  9.28916E-005	 -1.46372E-004	  9.30970E-005	  7.57848E-005	  2.45264E-005	  2.07594E-004	 -5.44992E-005	  1.98016E-004	 -2.37842E-004	  9.40164E-005	 -6.01269E-005	
  2.09613E+002	  6.68451E-005	  1.76002E-004	  7.41467E-005	  7.59423E-005	 -6.59036E-005	  5.66934E-005	  8.41896E-005	  7.96249E-005	  1.74536E-004	  3.36846E-005	  7.15559E-005	  3.40662E-005	  1.13371E-004	  5.05359E-005	
  2.35827E+002	  5.27992E-005	  1.66961E-004	 -8.55637E-005	  1.48095E-004	 -5.68867E-005	  1.42662E-004	  1.52671E-006	  4.43242E-005	 -5.35971E-005	  7.54419E-005	  3.91605E-005	  1.87876E-004	  3.49771E-006	  1.35662E-005	
  2.62042E+002	  6.94236E-005	  2.39438E-005	  9.66038E-005	  7.51435E-005	  4.68821E-005	  1.11330E-004	  6.26385E-005	  5.38914E-006	 -1.23554E-004	  3.53588E-005	 -5.90069E-005	  8.14555E-005	 -2.53231E-005	  1.23405E-004	
  2.88256E+002	  3.97508E-005	  1.07419E-004	  1.01684E-004	 -1.09540E-004	  7.08407E-006	  1.93519E-005	  1.12507E-004	  7.47406E-005	  1.50739E-004	  4.27342E-005	 -2.52650E-005	  2.26395E-004	  8.01518E-005	 -2.63107E-005	
  3.14470E+002	  2.62032E-006	  1.36045E-004	 -4.21115E-005	 -1.37526E-004	  9.99698E-005	  8.00141E-005	 -1.20670E-004	 -1.62438E-005	 -1.09445E-004	  9.46320E-005	  2.29236E-005	 -2.38839E-005	  8.99367E-007	 -8.25895E-005	
  3.40685E+002	  8.78562E-005	  1.90117E-004	  2.17742E-004	 -1.58544E-006	  1.23534E-004	 -1.68472E-005	  1.41779E-005	  8.88652E-005	  1.37776E-004	 -3.82738E-005	  2.33811E-005	  3.46961E-005	  2.53535E-004	  1.22077E-004	
  3.66899E+002	  4.78920E-006	  1.63027E-004	 -1.81887E-004	  1.56708E-004	 -4.74603E-005	 -1.17241E-005	 -4.99282E-005	  3.20445E-006	  6.21561E-005	  4.87763E-005	  3.58184E-005	 -1.68373E-004	  1.44845E-005	  2.63646E-005	
  3.93114E+002	  5.22531E-005	  2.01845E-004	 -6.88072E-005	  4.84492E-005	  1.33992E-004	 -1.77410E-004	  1.75450E-004	  1.04469E-004	  2.16074E-004	 -1.06279E-004	  1.60808E-004	  5.31275E-005	  1.49279E-004	  1.53805E-004	
  4.19328E+002	  2.27856E-005	  1.00098E-004	 -3.59611E-005	  8.14256E-005	 -9.40077E-006	 -9.49160E-005	  9.54684E-005	  5.87311E-005	  1.62871E-004	 -8.49720E-006	  8.17969E-005	 -2.89064E-005	  1.27252E-005	  1.32397E-004	
  4.71757E+002	 -2.39506E-006	  3.58860E-005	 -1.19143E-005	  2.84818E-005	 -3.00359E-005	 -2.41188E-005	 -1.26692E-005	  6.10526E-005	 -3.29467E-005	  5.45845E-005	  5.05650E-006	  1.08913E-004	  1.28082E-004	  1.02626E-004	
  5.24186E+002	  3.80844E-005	  8.95860E-005	  3.08703E-005	  5.21520E-005	 -7.65452E-005	  1.06518E-004	  2.59253E-005	  6.07977E-005	  2.35541E-005	 -6.87844E-005	  1.86218E-004	  8.10360E-005	  4.29461E-005	  9.98163E-005	
  5.76614E+002	 -7.88880E-006	  9.91855E-005	 -9.06365E-005	  1.00592E-004	 -9.08741E-005	 -6.01873E-005	 -5.41253E-006	 -8.27792E-006	  1.12395E-004	 -6.89814E-005	 -2.71773E-005	 -5.89450E-006	  4.40109E-005	 -1.04020E-004	
  6.29043E+002	  4.25728E-005	  8.48690E-006	 -2.45548E-005	  1.15504E-004	 -2.40135E-006	  6.48401E-005	  9.35619E-005	  2.56038E-005	  4.28388E-005	  4.88694E-005	  7.13283E-005	  3.06138E-005	 -2.03766E-005	 -1.96510E-005	
  6.81472E+002	  2.19300E-005	  1.20704E-005	  1.70620E-005	  4.17812E-005	 -5.98826E-005	  7.79193E-005	  4.26294E-005	  7.28668E-005	  5.23349E-005	  9.54271E-006	  1.58635E-004	  7.36928E-005	  6.54127E-005	  7.75828E-005	
  7.33901E+002	  3.97145E-005	  1.00714E-004	  1.01939E-004	  1.25582E-004	 -3.48519E-005	 -7.24855E-005	  1.73886E-005	  8.36752E-005	  1.94675E-004	  1.77284E-005	  1.23328E-004	  2.79868E-005	  2.88655E-005	  1.09467E-004	
  7.86330E+002	  2.66696E-005	  7.18322E-005	  4.73102E-005	  2.60388E-005	  3.20444E-005	 -5.27679E-006	 -1.19314E-005	  1.67648E-005	  1.16346E-004	  3.16372E-005	  3.28301E-005	 -7.99400E-006	 -7.54526E-005	  3.22203E-006	
  8.38758E+002	  2.02478E-005	  3.06151E-005	  1.77345E-005	  6.97442E-005	  4.05471E-005	  8.88563E-006	 -4.60395E-005	 -6.42743E-006	  3.24765E-005	 -3.45029E-005	  4.29931E-005	 -2.61604E-005	 -7.17240E-005	  1.83531E-005	
  9.43616E+002	  2.48175E-006	  3.29171E-005	 -1.37353E-005	 -1.23038E-005	 -4.26273E-005	  6.30368E-005	 -1.23970E-005	  7.68366E-006	  5.36852E-005	 -1.54957E-005	 -3.13265E-005	 -4.48367E-005	  5.26325E-005	  3.14432E-005	
  1.04847E+003	  1.31211E-005	  5.24279E-005	  2.38971E-005	  8.84238E-005	 -5.05670E-005	  5.68911E-005	 -9.23462E-005	  1.91341E-005	  1.98450E-005	  2.48647E-005	 -9.07283E-006	 -6.05380E-005	  8.17178E-005	  5.79879E-005	
  1.15333E+003	  5.05920E-005	  1.31483E-004	  1.47970E-005	  1.14438E-004	  1.53846E-005	  2.85069E-005	 -1.05692E-006	  1.21146E-005	  1.35663E-005	 -9.24590E-006	  2.22545E-004	 -1.11176E-004	 -2.92984E-005	 -1.37030E-005	
  1.25819E+003	  1.16533E-005	  5.80930E-005	  4.58511E-005	  8.32371E-005	  4.69325E-005	 -1.11689E-004	 -5.25046E-005	 -4.60225E-006	  4.97568E-005	 -6.63292E-005	  7.70482E-005	 -8.66370E-005	 -6.09034E-006	  4.63809E-006	
  1.36305E+003	 -1.43010E-005	 -1.08967E-005	 -3.14394E-005	  2.53462E-005	 -2.24369E-005	 -2.71544E-005	 -1.92247E-005	 -3.28499E-005	 -5.30262E-006	 -3.79408E-005	  5.36100E-005	 -1.27524E-004	 -5.38726E-005	 -2.60695E-005	
  1.46790E+003	  2.77361E-005	  2.70647E-005	  1.21014E-004	 -1.38704E-005	 -5.97862E-005	  2.85342E-005	  6.34596E-005	 -5.39026E-005	 -9.10122E-005	 -4.65663E-005	 -3.36137E-005	 -8.71970E-005	 -1.09823E-004	  4.47971E-005	
  1.57276E+003	 -1.83158E-005	  7.10761E-005	 -6.67411E-005	 -3.40152E-005	  7.07371E-005	 -9.00691E-005	 -6.08827E-005	 -2.87481E-005	  1.70039E-005	 -8.13842E-005	 -4.82571E-005	  7.17481E-008	 -1.35269E-004	  7.53457E-005	
  1.67762E+003	  3.38547E-005	  8.01028E-005	 -1.96102E-005	 -3.49135E-005	  7.91667E-005	  7.70796E-005	  2.13025E-005	  1.66485E-005	  8.11049E-005	 -3.70245E-005	 -5.04845E-006	 -2.93242E-005	  3.39760E-005	  5.62070E-005	
  1.88733E+003	  4.83126E-005	  1.49859E-004	 -5.96261E-005	  5.82452E-005	  7.08416E-005	  4.27289E-005	  2.78269E-005	  1.94118E-005	  7.02998E-005	 -6.52246E-005	  5.12420E-005	  8.12989E-006	  2.42665E-005	  2.77569E-005	
  2.09705E+003	  1.50236E-005	  6.25593E-005	 -1.27145E-005	 -3.77858E-006	  7.97588E-005	 -5.17987E-005	  1.61154E-005	 -2.44766E-005	  2.71470E-005	 -1.44875E-005	 -4.90265E-005	 -2.79758E-005	 -9.32970E-005	  1.07805E-005	
  2.30676E+003	 -9.97698E-006	  1.88512E-005	 -5.10263E-005	 -6.64232E-005	  1.04579E-006	  4.95156E-007	  3.71954E-005	 -8.26553E-006	 -8.19705E-005	  3.60595E-005	 -3.68421E-005	 -1.74625E-005	  1.50405E-005	  3.55820E-005	
  2.51648E+003	 -1.83163E-005	 -5.61283E-006	  4.89179E-005	 -2.85337E-005	 -2.18492E-005	  4.68292E-005	 -1.49649E-004	  9.79690E-006	  6.67829E-007	 -3.78971E-005	  3.78407E-006	  2.97728E-005	  5.03073E-005	  1.21465E-005	
  2.72620E+003	 -2.14975E-005	  5.06092E-005	  1.27651E-007	 -9.05417E-005	 -1.07605E-005	 -1.17421E-005	 -6.66777E-005	 -1.19533E-005	 -6.18015E-005	 -2.34597E-005	 -4.53765E-005	  1.61782E-005	  2.74881E-005	  1.52519E-005	
  2.93591E+003	 -7.14265E-006	 -2.70351E-005	  3.31058E-005	 -8.77230E-006	  7.48178E-006	  1.18549E-005	 -5.94909E-005	 -3.05982E-005	 -8.94490E-005	  1.92595E-005	 -2.98880E-005	 -3.28507E-005	  1.00194E-005	 -6.06805E-005	
  3.14563E+003	  2.27009E-006	  2.47368E-005	  4.77650E-005	  2.15248E-005	  5.61041E-006	  2.86424E-006	 -8.88807E-005	  4.71324E-006	 -3.92407E-005	  4.06902E-005	  6.05817E-005	 -8.65342E-006	  2.18196E-005	 -4.69179E-005	
  3.35534E+003	  6.10907E-006	  2.09980E-005	  5.11935E-005	 -4.67218E-006	  9.00615E-006	  3.20947E-005	 -7.19657E-005	  2.29161E-005	  9.27480E-006	  8.35071E-005	 -1.95102E-005	  6.28319E-005	  3.38591E-005	 -3.24662E-005	
  3.77477E+003	 -1.21845E-005	  5.00604E-005	  2.26037E-006	 -2.35900E-005	 -6.43456E-005	 -1.78321E-005	 -1.96598E-005	  3.71679E-005	  5.77671E-005	  8.00013E-005	  1.95536E-005	  5.21026E-006	  5.66258E-005	  3.84936E-006	
  4.19420E+003	 -3.84757E-005	 -8.60179E-005	 -2.80460E-005	 -6.48165E-005	 -2.25743E-005	 -3.93803E-005	  9.98063E-006	  1.03925E-005	  3.72705E-005	  4.61005E-005	  1.62408E-005	 -4.72343E-005	 -3.58335E-005	  4.58106E-005	
  4.61363E+003	  2.01137E-006	 -8.16952E-005	  2.75360E-005	  6.57574E-005	 -9.26930E-007	  7.02279E-006	 -5.62584E-006	  2.11275E-005	 -2.75325E-005	  4.84691E-005	  4.84724E-005	  4.37805E-005	 -4.47943E-005	  5.83698E-005	
  5.03306E+003	 -7.98008E-006	 -1.34846E-006	 -6.64243E-005	 -3.18816E-005	  2.11451E-005	  8.38373E-005	 -5.32085E-005	 -4.87796E-006	  4.58852E-005	 -8.52635E-005	 -2.98701E-007	 -2.61847E-005	  5.41285E-006	  3.11811E-005	
  5.45249E+003	 -3.15778E-005	 -8.14618E-007	 -3.16825E-005	 -6.76494E-005	 -2.44640E-005	 -3.76739E-005	 -2.71824E-005	 -7.63846E-006	 -1.08517E-005	 -5.17220E-005	 -1.95566E-005	  1.20718E-004	 -5.01661E-005	 -3.42520E-005	
  5.87192E+003	  1.86943E-005	 -1.19598E-006	  8.24897E-005	  1.13584E-005	  3.62471E-005	 -5.71301E-005	  4.03966E-005	 -8.38030E-006	  6.94147E-005	 -3.60886E-005	 -1.14938E-005	  1.01016E-005	 -3.75575E-005	 -4.46581E-005	
  6.29135E+003	 -1.99675E-005	 -4.96622E-005	  2.46889E-005	 -4.40820E-005	 -2.26709E-005	 -3.40773E-005	  5.99885E-006	 -2.41456E-005	  3.54829E-005	 -1.21364E-005	 -4.49662E-005	 -7.31464E-005	  1.08102E-005	 -6.09178E-005	

"Count Rate"
       0.11719	      81.81271	       8.86077
       0.23438	      87.04552	       8.98028
       0.35156	      85.44922	       8.46809
       0.46875	      82.02613	       8.27176
       0.58594	      87.25040	       8.73272
       0.70313	      81.85540	       8.40834
       0.82031	      80.39568	       8.21200
       0.93750	      85.66263	       8.96320
       1.05469	      84.23705	       9.04003
       1.17188	      84.05779	       8.32298
       1.28906	      85.28703	       8.86930
       1.40625	      80.97615	       8.76687
       1.52344	      87.30161	       8.74126
       1.64063	      85.57726	       8.39127
       1.75781	      85.32117	       8.69858
       1.87500	      85.86750	       8.22908
       1.99219	      87.24186	       8.67297
       2.10938	      87.58331	       8.62175
       2.22656	      87.85648	       9.12540
       2.34375	      87.16503	       8.53639
       2.46094	      87.28454	       8.98028
       2.57813	      79.12376	       8.39127
       2.69531	      83.97242	       8.74979
       2.81250	      85.17606	       8.46809
       2.92969	      85.91018	       9.22783
       3.04688	      86.43944	       8.97174
       3.16406	      87.46381	       9.29612
       3.28125	      84.93703	       8.82662
       3.39844	      84.11754	       8.47663
       3.51563	      87.63453	       8.74979
       3.63281	      84.04925	       8.69858
       3.75000	      88.41135	       8.28883
       3.86719	      81.99198	       8.51078
       3.98438	      85.88457	       9.03150
       4.10156	      85.56019	       8.59614
       4.21875	      84.83459	       8.89491
       4.33594	      82.99074	       9.11686
       4.45313	      82.24807	       8.36566
       4.57031	      83.43463	       8.22908
       4.68750	      83.63097	       8.46809
       4.80469	      86.31139	       8.92052
       4.92188	      83.11024	       8.66443
       5.03906	      83.84438	       8.70711
       5.15625	      85.39800	       9.13393
       5.27344	      86.05530	       8.49370
       5.39063	      81.42858	       8.48517
       5.50781	      86.12359	       8.99735
       5.62500	      84.65533	       8.94613
       5.74219	      83.63950	       8.82662
       5.85938	      82.17978	       8.68150
       5.97656	      84.17730	       8.57053
       6.09375	      84.04925	       8.65590
       6.21094	      80.89932	       8.22908
       6.32813	      85.48336	       8.45102
       6.44531	      84.75777	       8.30590
       6.56250	      81.80418	       8.49370
       6.67969	      84.28827	       8.33151
       6.79688	      83.44317	       9.11686
       6.91406	      86.16628	       8.99735
       7.03125	      87.57478	       8.72419
       7.14844	      88.37720	       9.34734
       7.26563	      80.35300	       8.49370
       7.38281	      83.98096	       8.81809
       7.50000	      86.02969	       8.24615
       7.61719	      85.61141	       8.80955
       7.73438	      86.62724	       8.34859
       7.85156	      86.03823	       8.96320
       7.96875	      84.19437	       8.59614
       8.08594	      84.54436	       9.01442
       8.20313	      85.61994	       8.88638
       8.32031	      84.81753	       8.20347
       8.43750	      84.04071	       8.39127
       8.55469	      83.33219	       8.28883
       8.67188	      87.88209	       8.67297
       8.78906	      83.01635	       8.69004
       8.90625	      87.38698	       8.85223
       9.02344	      87.20771	       8.62175
       9.14063	      88.20647	       9.10832
       9.25781	      86.42236	       9.17661
       9.37500	      87.24186	       8.56199
       9.49219	      82.29929	       8.43395
       9.60938	      86.21749	       8.87784
       9.72656	      85.26141	       8.92906
       9.84375	      84.66387	       8.41688
       9.96094	      84.21998	       8.73272
      10.07813	      83.52000	       8.34859
      10.19531	      84.42485	       8.34005
      10.31250	      79.83228	       7.81933
      10.42969	      86.11506	       8.48517
      10.54688	      83.11024	       8.77540
      10.66406	      86.68700	       8.78394
      10.78125	      83.92120	       8.31444
      10.89844	      85.85896	       8.93760
      11.01563	      86.40530	       8.57053
      11.13281	      86.70406	       8.88638
      11.25000	      86.85772	       8.27176
      11.36719	      84.56997	       9.20222
      11.48438	      86.51627	       9.12540
      11.60156	      85.25288	       8.67297
      11.71875	      84.09193	       8.37419
      11.83594	      84.33095	       8.62175
      11.95313	      84.51022	       8.67297
      12.07031	      86.66992	       8.57053
      12.18750	      83.86145	       8.78394
      12.30469	      85.43214	       9.22783
      12.42188	      84.07486	       8.40834
      12.53906	      85.68824	       8.81809
      12.65625	      82.75172	       8.45956
      12.77344	      86.26018	       8.74126
      12.89063	      84.52729	       8.82662
      13.00781	      85.71384	       9.00589
      13.12500	      86.02969	       8.69004
      13.24219	      87.46381	       8.61321
      13.35938	      87.51502	       9.15100
      13.47656	      88.61622	       8.93760
      13.59375	      89.04304	       9.25344
      13.71094	      84.94557	       8.51078
      13.82813	      85.18459	       8.77540
      13.94531	      87.05405	       8.63029
      14.06250	      83.48585	       9.03150
      14.17969	      89.19669	       9.31320
      14.29688	      85.58580	       9.13393
      14.41406	      86.00408	       8.52785
      14.53125	      84.33095	       8.94613
      14.64844	      86.51627	       9.02296
      14.76563	      84.62119	       8.55346
      14.88281	      84.30534	       8.56199
      15.00000	      85.70531	       9.03150
      15.11719	      86.47359	       9.02296
      15.23438	      85.11629	       8.70711
      15.35156	      82.54684	       8.16078
      15.46875	      83.45171	       8.28883
      15.58594	      85.25288	       8.81809
      15.70313	      85.02240	       8.98028
      15.82031	      85.28703	       8.86930
      15.93750	      86.96016	       9.38149
      16.05469	      85.76506	       9.44124
      16.17188	      82.39319	       9.01442
      16.28906	      85.00533	       9.10832
      16.40625	      84.16876	       8.57907
      16.52344	      86.15774	       8.95467
      16.64063	      84.88582	       8.53639
      16.75781	      87.60892	       8.69004
      16.87500	      83.21268	       7.93884
      16.99219	      88.43695	       9.49246
      17.10938	      85.26995	       8.62175
      17.22656	      81.65907	       9.02296
      17.34375	      87.37844	       8.89491
      17.46094	      93.25147	       9.21930
      17.57813	      85.79921	       8.56199
      17.69531	      83.38342	       8.45102
      17.81250	      88.90646	       8.57907
      17.92969	      87.60039	       9.00589
      18.04688	      86.29432	       9.08271
      18.16406	      86.83212	       8.72419
      18.28125	      83.87852	       8.82662
      18.39844	      84.71509	       9.26198
      18.51563	      83.04195	       8.63882
      18.63281	      86.06384	       8.90345
      18.75000	      82.45295	       8.86930
      18.86719	      82.12856	       8.23761
      18.98438	      87.66014	       8.61321
      19.10156	      85.56873	       9.23637
      19.21875	      84.88582	       8.09249
      19.33594	      83.85291	       8.87784
      19.45313	      80.30178	       8.44248
      19.57031	      82.93098	       7.93030
      19.68750	      80.60909	       8.04981
      19.80469	      85.15044	       8.73272
      19.92188	      86.55042	       8.30590
      20.03906	      84.60412	       8.73272
      20.15625	      83.88706	       8.36566
      20.27344	      84.97118	       8.28883
      20.39063	      86.83212	       8.48517
      20.50781	      83.77608	       8.61321
      20.62500	      83.69072	       8.58760
      20.74219	      84.46754	       8.28029
      20.85938	      84.54436	       8.43395
      20.97656	      82.64928	       8.35712
      21.09375	      82.85416	       8.17786
      21.21094	      83.42609	       8.70711
      21.32813	      83.28951	       8.52785
      21.44531	      84.48460	       8.68150
      21.56250	      86.38822	       9.09979
      21.67969	      86.53334	       8.67297
      21.79688	      87.58331	       9.21930
      21.91406	      84.39071	       8.66443
      22.03125	      85.50043	       8.59614
      22.14844	      87.04552	       8.35712
      22.26563	      86.83212	       8.95467
      22.38281	      86.56748	       8.86077
      22.50000	      87.98453	       9.09979
      22.61719	      83.98949	       8.32298
      22.73438	      85.34678	       8.35712
      22.85156	      85.04800	       8.71565
      22.96875	      86.46505	       8.53639
      23.08594	      85.19312	       8.25468
      23.20313	      85.47482	       8.76687
      23.32031	      86.47359	       9.24491
      23.43750	      85.19312	       8.40834
      23.55469	      89.00889	       8.70711
      23.67188	      88.10403	       9.27051
      23.78906	      83.40048	       7.93884
      23.90625	      89.35888	       8.88638
      24.02344	      86.55042	       8.96320
      24.14063	      83.00781	       8.96320
      24.25781	      83.60536	       8.70711
      24.37500	      84.64680	       8.86077
      24.49219	      86.82358	       8.86077
      24.60938	      83.51146	       8.76687
      24.72656	      86.49919	       8.76687
      24.84375	      88.18940	       8.86930
      24.96094	      80.74567	       8.40834
      25.07813	      85.60287	       8.57907
      25.19531	      82.93952	       8.85223
      25.31250	      82.18832	       8.29737
      25.42969	      86.97723	       9.20222
      25.54688	      86.26871	       8.22908
      25.66406	      86.72114	       8.57907
      25.78125	      85.39800	       8.51078
      25.89844	      80.21642	       8.56199
      26.01563	      85.94433	       8.59614
      26.13281	      85.23581	       8.90345
      26.25000	      86.26871	       9.37295
      26.36719	      86.66992	       8.78394
      26.48438	      82.90537	       8.46809
      26.60156	      87.24186	       8.58760
      26.71875	      86.13213	       9.29612
      26.83594	      84.19437	       8.42541
      26.95313	      88.17233	       8.35712
      27.07031	      84.26266	       8.68150
      27.18750	      80.96761	       8.16078
      27.30469	      86.28578	       8.41688
      27.42188	      84.40778	       8.62175
      27.53906	      84.31388	       8.66443
      27.65625	      85.86750	       8.65590
      27.77344	      84.71509	       8.10957
      27.89063	      82.77733	       8.90345
      28.00781	      87.19064	       8.80101
      28.12500	      89.63205	       9.31320
      28.24219	      83.55414	       8.80101
      28.35938	      87.47234	       9.11686
      28.47656	      84.39071	       8.92052
      28.59375	      86.96870	       9.09979
      28.71094	      86.33700	       8.80955
      28.82813	      82.74319	       8.25468
      28.94531	      88.25769	       9.03150
      29.06250	      84.90289	       9.24491
      29.17969	      87.01138	       8.98028
      29.29688	      81.45419	       8.65590
      29.41406	      89.09425	       8.72419
      29.53125	      91.85151	       9.27905
      29.64844	      88.35159	       8.49370
      29.76563	      83.43463	       8.63029
