ALV-5000/E-WIN Data
Date :	"20-Dec-12"
Time :	"14:26:43"
Samplename : 	""
SampMemo(0) : 	""
SampMemo(1) : 	""
SampMemo(2) : 	""
SampMemo(3) : 	""
SampMemo(4) : 	""
SampMemo(5) : 	""
SampMemo(6) : 	""
SampMemo(7) : 	""
SampMemo(8) : 	""
SampMemo(9) : 	""
Temperature [K] :	     298.16000
Viscosity [cp]  :	       0.89000
Refractive Index:	       1.33200
Wavelength [nm] :	     500.00000
Angle [°]       :	      90.00000
Duration [s]    :	        30
Runs            :	         6
Mode            :	"DUAL AUTO CH0"
MeanCR0 [kHz]   :	      84.85808
MeanCR1 [kHz]   :	       0.00000

"Correlation (Multi, Averaged)"
"Lag [ms]"	"Average(0)"	"Run  1"	"Run  2"	"Run  3"	"Run  4"	"Run  5"	"Run  6"	"Average(1)"	" 1,   0.000"	" 2,   0.000"	" 3,   0.000"	" 4,   0.000"	" 5,   0.000"	" 6,   0.000"	
  4.00000E-004	  2.12469E-001	  2.20928E-001	  2.06353E-001	  2.10407E-001	  2.14532E-001	  2.12258E-001	  2.10333E-001	  2.93012E-001	  2.88458E-001	  2.99292E-001	  2.98429E-001	  2.93936E-001	  2.35530E-001	  3.42425E-001	
  8.00000E-004	  1.80487E-001	  1.79667E-001	  1.83217E-001	  1.81228E-001	  1.78219E-001	  1.81041E-001	  1.79553E-001	  1.02539E-001	  1.24389E-001	  9.69246E-002	  1.06537E-001	  1.00642E-001	  6.95801E-002	  1.17163E-001	
  1.20000E-003	  1.69191E-001	  1.73525E-001	  1.66772E-001	  1.69411E-001	  1.65008E-001	  1.73104E-001	  1.67326E-001	  1.08504E-001	  1.66840E-001	  1.13022E-001	  9.50466E-002	  5.74348E-002	  8.32198E-002	  1.35458E-001	
  1.60000E-003	  1.62254E-001	  1.67442E-001	  1.64851E-001	  1.58418E-001	  1.61750E-001	  1.61741E-001	  1.59320E-001	  1.10831E-001	  1.42746E-001	  9.00257E-002	  7.78108E-002	  1.16560E-001	  1.28685E-001	  1.09158E-001	
  2.00000E-003	  1.60004E-001	  1.54934E-001	  1.59592E-001	  1.63209E-001	  1.66122E-001	  1.56230E-001	  1.59935E-001	  1.10312E-001	  1.56514E-001	  7.39283E-002	  1.13431E-001	  1.42712E-001	  7.29900E-002	  1.02298E-001	
  2.40000E-003	  1.53541E-001	  1.52776E-001	  1.54870E-001	  1.49313E-001	  1.52639E-001	  1.53592E-001	  1.58055E-001	  9.49154E-002	  7.39059E-002	  1.46367E-001	  9.50466E-002	  7.10792E-002	  1.05953E-001	  7.71415E-002	
  2.80000E-003	  1.48278E-001	  1.47345E-001	  1.50743E-001	  1.50675E-001	  1.49097E-001	  1.44395E-001	  1.47413E-001	  8.00884E-002	  8.65266E-002	  1.06884E-002	  9.15994E-002	  1.29068E-001	  8.32198E-002	  7.94284E-002	
  3.20000E-003	  1.49275E-001	  1.48697E-001	  1.52520E-001	  1.48130E-001	  1.49405E-001	  1.49447E-001	  1.47448E-001	  1.06644E-001	  5.66959E-002	  1.34869E-001	  1.28369E-001	  1.23382E-001	  1.50282E-001	  4.62680E-002	
  3.60000E-003	  1.44398E-001	  1.52171E-001	  1.39903E-001	  1.42777E-001	  1.39015E-001	  1.47998E-001	  1.44527E-001	  7.03150E-002	  9.91473E-002	  7.23895E-003	  1.37561E-001	  4.72016E-002	  6.50335E-002	  6.57069E-002	
  4.00000E-003	  1.40697E-001	  1.37646E-001	  1.43659E-001	  1.44796E-001	  1.31539E-001	  1.42699E-001	  1.43842E-001	  8.11203E-002	  3.14545E-002	  1.02674E-001	  9.38975E-002	  6.19829E-002	  1.23002E-001	  7.37111E-002	
  4.40000E-003	  1.40107E-001	  1.39093E-001	  1.41823E-001	  1.41307E-001	  1.41977E-001	  1.37353E-001	  1.39088E-001	  8.32574E-002	  6.47273E-002	  1.16471E-001	  7.09165E-002	  9.26827E-002	  6.61701E-002	  8.85761E-002	
  4.80000E-003	  1.36693E-001	  1.41298E-001	  1.35419E-001	  1.38296E-001	  1.45116E-001	  1.28557E-001	  1.31473E-001	  7.90316E-002	  7.04639E-002	  4.51829E-002	  1.28369E-001	  1.30205E-001	  4.79839E-002	  5.19853E-002	
  5.20000E-003	  1.35362E-001	  1.36745E-001	  1.37124E-001	  1.40996E-001	  1.30863E-001	  1.30288E-001	  1.36155E-001	  8.61329E-002	  1.15210E-001	  3.25349E-002	  1.05388E-001	  1.87759E-002	  9.79961E-002	  1.46893E-001	
  5.60000E-003	  1.32403E-001	  1.39235E-001	  1.33904E-001	  1.34186E-001	  1.35650E-001	  1.28404E-001	  1.23042E-001	  4.79010E-002	  1.17505E-001	 -3.10939E-003	  8.35560E-002	 -3.23903E-002	  2.29777E-002	  9.88673E-002	
  6.00000E-003	  1.28823E-001	  1.32157E-001	  1.28824E-001	  1.24065E-001	  1.29916E-001	  1.25166E-001	  1.32809E-001	  7.53602E-002	  1.04884E-001	  8.19770E-002	  3.06996E-002	  1.39301E-001	  6.38969E-002	  3.14030E-002	
  6.40000E-003	  1.28190E-001	  1.27023E-001	  1.27489E-001	  1.26834E-001	  1.29871E-001	  1.26866E-001	  1.31055E-001	  6.81726E-002	  5.89780E-002	  6.47382E-002	  6.45967E-002	  8.24494E-002	  4.96971E-002	  8.85761E-002	
  7.20000E-003	  1.23703E-001	  1.24053E-001	  1.22063E-001	  1.23500E-001	  1.23391E-001	  1.24017E-001	  1.25196E-001	  8.13687E-002	  6.93039E-002	  9.80831E-002	  1.02515E-001	  9.26827E-002	  6.10636E-002	  6.45634E-002	
  8.00000E-003	  1.24002E-001	  1.26305E-001	  1.23637E-001	  1.21821E-001	  1.26601E-001	  1.20331E-001	  1.25314E-001	  7.56308E-002	  5.15204E-002	  9.75082E-002	  6.86184E-002	  5.80034E-002	  7.64084E-002	  1.01726E-001	
  8.80000E-003	  1.17812E-001	  1.17745E-001	  1.18986E-001	  1.17400E-001	  1.17591E-001	  1.18311E-001	  1.16836E-001	  7.07639E-002	  4.69311E-002	  8.77347E-002	  9.15994E-002	  7.90383E-002	  7.07251E-002	  4.85549E-002	
  9.60000E-003	  1.17158E-001	  1.20994E-001	  1.15826E-001	  1.20441E-001	  1.10785E-001	  1.18441E-001	  1.16463E-001	  6.15689E-002	  7.90562E-002	  6.70378E-002	  6.68948E-002	  3.46943E-002	  4.34455E-002	  7.82850E-002	
  1.04000E-002	  1.12203E-001	  1.17199E-001	  1.09899E-001	  1.08911E-001	  1.13516E-001	  1.11152E-001	  1.12543E-001	  6.63921E-002	  1.07166E-001	  7.45117E-002	  5.02335E-002	  7.05106E-002	  5.53804E-002	  4.05507E-002	
  1.12000E-002	  1.08672E-001	  1.11674E-001	  1.12940E-001	  1.07967E-001	  1.04091E-001	  1.05600E-001	  1.09759E-001	  6.00646E-002	  7.50405E-002	  9.06093E-002	  5.71278E-002	  5.91404E-002	  1.16193E-002	  6.68503E-002	
  1.20000E-002	  1.08088E-001	  1.07554E-001	  1.06142E-001	  1.06408E-001	  1.08024E-001	  1.11605E-001	  1.08795E-001	  6.98923E-002	  9.79870E-002	  8.02608E-002	  7.95344E-002	  5.85719E-002	  2.07125E-002	  8.22871E-002	
  1.28000E-002	  1.06424E-001	  1.05344E-001	  1.03828E-001	  1.05104E-001	  1.08930E-001	  1.07596E-001	  1.07742E-001	  5.78034E-002	  7.27459E-002	  3.51302E-002	  4.13284E-002	  6.05825E-002	  6.50293E-002	  7.20044E-002	
  1.44000E-002	  1.03444E-001	  1.00892E-001	  1.05584E-001	  9.98885E-002	  1.07093E-001	  1.04667E-001	  1.02542E-001	  5.25375E-002	  4.80785E-002	  7.79612E-002	  4.44883E-002	  5.37602E-002	  2.95094E-002	  6.14273E-002	
  1.60000E-002	  9.90387E-002	  9.83425E-002	  9.72508E-002	  9.90880E-002	  9.99130E-002	  1.01764E-001	  9.78737E-002	  5.77107E-002	  8.50796E-002	  6.50256E-002	  3.90303E-002	  5.46130E-002	  5.30946E-002	  4.94208E-002	
  1.76000E-002	  9.50452E-002	  9.49837E-002	  9.33123E-002	  9.78005E-002	  9.52717E-002	  9.40922E-002	  9.48111E-002	  4.61884E-002	  5.06599E-002	  7.42242E-002	  4.62118E-002	  3.32934E-002	  6.04828E-002	  1.22580E-002	
  1.92000E-002	  9.20700E-002	  9.21914E-002	  9.29128E-002	  8.94452E-002	  9.37700E-002	  9.26329E-002	  9.14676E-002	  6.22579E-002	  8.42191E-002	  4.05919E-002	  7.40764E-002	  5.43288E-002	  3.77500E-002	  8.25815E-002	
  2.08000E-002	  8.88499E-002	  8.72921E-002	  8.64519E-002	  8.73393E-002	  8.74966E-002	  9.29012E-002	  9.16184E-002	  4.12198E-002	  3.48843E-002	  1.64455E-002	  6.60330E-002	  6.51307E-002	  4.57065E-002	  1.91188E-002	
  2.24000E-002	  8.62584E-002	  8.59019E-002	  8.57990E-002	  8.97196E-002	  8.62665E-002	  8.42462E-002	  8.56173E-002	  5.37069E-002	  7.61878E-002	  7.19246E-002	  2.95506E-002	  4.52324E-002	  5.79295E-002	  4.14165E-002	
  2.40000E-002	  8.30036E-002	  8.09280E-002	  8.62492E-002	  8.25712E-002	  8.26441E-002	  8.16265E-002	  8.40027E-002	  5.33369E-002	  3.97604E-002	  7.30744E-002	  3.18487E-002	  7.99124E-002	  4.42898E-002	  5.11360E-002	
  2.56000E-002	  8.09518E-002	  8.19137E-002	  8.09523E-002	  8.07456E-002	  8.12412E-002	  8.03606E-002	  8.04973E-002	  4.65431E-002	  4.54846E-002	  6.94812E-002	  2.38134E-002	  4.89195E-002	  4.12979E-002	  5.02618E-002	
  2.88000E-002	  7.67886E-002	  7.61854E-002	  7.77055E-002	  7.59809E-002	  7.65228E-002	  7.72430E-002	  7.70942E-002	  5.35086E-002	  5.60972E-002	  5.95640E-002	  5.29709E-002	  4.73561E-002	  5.38009E-002	  5.12624E-002	
  3.20000E-002	  7.34796E-002	  7.27055E-002	  7.19721E-002	  7.15523E-002	  7.83030E-002	  7.34748E-002	  7.28698E-002	  4.38585E-002	  5.02172E-002	  3.36929E-002	  3.74585E-002	  5.98635E-002	  2.82266E-002	  5.36922E-002	
  3.52000E-002	  7.05653E-002	  7.15954E-002	  7.08015E-002	  7.12740E-002	  7.03264E-002	  7.03043E-002	  6.90903E-002	  3.87052E-002	  5.63840E-002	  1.15588E-002	  1.82118E-002	  2.34783E-002	  6.13311E-002	  6.12676E-002	
  3.84000E-002	  6.61639E-002	  6.56948E-002	  6.65633E-002	  6.38836E-002	  7.02879E-002	  6.48213E-002	  6.57325E-002	  4.88079E-002	  4.72056E-002	  7.59490E-002	  4.19111E-002	  3.65542E-002	  4.96806E-002	  4.15471E-002	
  4.16000E-002	  6.37071E-002	  6.22638E-002	  6.53279E-002	  6.30676E-002	  6.39286E-002	  6.49553E-002	  6.26994E-002	  4.30510E-002	  2.61238E-002	  3.67112E-002	  5.71362E-002	  6.12848E-002	  2.97854E-002	  4.72644E-002	
  4.48000E-002	  6.15515E-002	  6.18158E-002	  6.15359E-002	  6.14287E-002	  6.00184E-002	  6.17381E-002	  6.27723E-002	  2.45849E-002	  2.61278E-002	  1.37147E-002	  1.34719E-002	  3.58436E-002	  2.55231E-002	  3.28283E-002	
  4.80000E-002	  5.86934E-002	  6.04504E-002	  5.83621E-002	  6.02658E-002	  5.80591E-002	  5.76608E-002	  5.73624E-002	  4.27132E-002	  3.17210E-002	  4.28915E-002	  5.25400E-002	  4.39450E-002	  3.23429E-002	  5.28388E-002	
  5.12000E-002	  5.66628E-002	  5.67614E-002	  5.69498E-002	  5.72695E-002	  5.71083E-002	  5.56787E-002	  5.62092E-002	  3.59065E-002	  3.09998E-002	  3.56559E-002	  4.14638E-002	  4.06842E-002	  3.06420E-002	  3.59932E-002	
  5.76000E-002	  5.31063E-002	  5.34027E-002	  5.39452E-002	  5.25201E-002	  5.37788E-002	  5.31382E-002	  5.18527E-002	  2.94462E-002	  4.41939E-002	  2.88291E-002	  2.00628E-002	  2.80345E-002	  3.00737E-002	  2.54834E-002	
  6.40000E-002	  4.95967E-002	  4.99998E-002	  5.12694E-002	  4.85636E-002	  5.01834E-002	  4.90539E-002	  4.85100E-002	  3.40562E-002	  3.65930E-002	  4.72255E-002	  2.37254E-002	  3.48568E-002	  2.69479E-002	  3.49886E-002	
  7.04000E-002	  4.58409E-002	  4.47155E-002	  4.56336E-002	  4.65401E-002	  4.66541E-002	  4.60975E-002	  4.54048E-002	  2.90612E-002	  2.69802E-002	  3.10568E-002	  1.66157E-002	  3.32934E-002	  4.17952E-002	  2.46258E-002	
  7.68000E-002	  4.32571E-002	  4.43252E-002	  4.25221E-002	  4.19627E-002	  4.37169E-002	  4.43665E-002	  4.26493E-002	  2.21121E-002	  1.45750E-002	  2.66774E-002	  2.55926E-002	  2.42680E-002	  1.65051E-002	  2.50546E-002	
  8.32000E-002	  4.11079E-002	  4.17152E-002	  4.13735E-002	  4.00001E-002	  4.23677E-002	  4.08199E-002	  4.03707E-002	  2.66414E-002	  3.75927E-002	  2.76157E-002	  3.01170E-002	  1.87960E-002	  2.46746E-002	  2.10525E-002	
  8.96000E-002	  3.86613E-002	  3.84242E-002	  3.91414E-002	  3.83190E-002	  3.83794E-002	  3.89755E-002	  3.87282E-002	  2.47689E-002	  3.67323E-002	  1.92079E-002	  3.22714E-002	  1.99330E-002	  1.89875E-002	  2.14813E-002	
  9.60000E-002	  3.62677E-002	  3.70393E-002	  3.63444E-002	  3.71373E-002	  3.70258E-002	  3.53100E-002	  3.47491E-002	  2.13176E-002	  4.42614E-002	  1.04408E-002	  3.29218E-002	  1.16184E-002	  9.39717E-003	  1.92658E-002	
  1.02400E-001	  3.47723E-002	  3.45364E-002	  3.59025E-002	  3.50938E-002	  3.57637E-002	  3.43304E-002	  3.30071E-002	  2.69776E-002	  3.19239E-002	  2.25940E-002	  3.30809E-002	  3.20527E-002	  1.84662E-002	  2.37480E-002	
  1.15200E-001	  3.23458E-002	  3.23011E-002	  3.24254E-002	  3.21599E-002	  3.28107E-002	  3.30893E-002	  3.12887E-002	  1.97055E-002	  2.36776E-002	  2.02943E-002	  1.96158E-002	  1.32249E-002	  1.97093E-002	  2.17112E-002	
  1.28000E-001	  2.94645E-002	  2.98661E-002	  2.99082E-002	  2.87854E-002	  2.94524E-002	  2.96328E-002	  2.91421E-002	  1.77646E-002	  1.67221E-002	  1.27126E-002	  1.22549E-002	  2.01537E-002	  1.36356E-002	  3.11090E-002	
  1.40800E-001	  2.77467E-002	  2.80912E-002	  2.71337E-002	  2.80424E-002	  2.71613E-002	  2.83079E-002	  2.77436E-002	  1.65750E-002	  2.44624E-002	  1.95757E-002	  6.47782E-003	  1.62096E-002	  2.18049E-002	  1.09199E-002	
  1.53600E-001	  2.54333E-002	  2.63326E-002	  2.52419E-002	  2.51556E-002	  2.54607E-002	  2.54266E-002	  2.49821E-002	  1.87005E-002	  2.50360E-002	  1.41858E-002	  1.83272E-002	  1.38330E-002	  2.36164E-002	  1.72049E-002	
  1.66400E-001	  2.33983E-002	  2.36556E-002	  2.34381E-002	  2.37965E-002	  2.32795E-002	  2.32937E-002	  2.29268E-002	  1.61767E-002	  1.47861E-002	  1.97553E-002	  3.27260E-002	  5.58957E-003	  1.34265E-002	  1.07770E-002	
  1.79200E-001	  2.20461E-002	  2.29724E-002	  2.16451E-002	  2.18204E-002	  2.19749E-002	  2.17780E-002	  2.20857E-002	  1.16408E-002	  1.40690E-002	  9.47871E-003	  1.41491E-003	  1.55385E-002	  2.02106E-002	  9.13325E-003	
  1.92000E-001	  2.13847E-002	  2.23491E-002	  2.11170E-002	  2.19515E-002	  2.09970E-002	  2.15001E-002	  2.03936E-002	  1.57912E-002	  1.08064E-002	  1.66292E-002	  1.54187E-002	  1.61781E-002	  2.50807E-002	  1.06340E-002	
  2.04800E-001	  1.97813E-002	  2.06650E-002	  2.00218E-002	  1.95460E-002	  1.99524E-002	  1.97588E-002	  1.87439E-002	  1.50546E-002	  1.53372E-002	  1.56406E-002	  1.75409E-002	  1.48616E-002	  1.13844E-002	  1.55627E-002	
  2.30400E-001	  1.78541E-002	  1.78558E-002	  1.83590E-002	  1.65802E-002	  1.82175E-002	  1.83982E-002	  1.77142E-002	  1.10504E-002	  1.29173E-002	  1.15446E-002	  6.46392E-003	  1.21611E-002	  6.38004E-003	  1.68351E-002	
  2.56000E-001	  1.55241E-002	  1.62024E-002	  1.51504E-002	  1.51079E-002	  1.60911E-002	  1.53920E-002	  1.52009E-002	  9.98689E-003	  7.96997E-003	  9.69423E-003	  1.06829E-002	  1.49327E-002	  1.22409E-002	  4.40070E-003	
  2.81600E-001	  1.50224E-002	  1.54438E-002	  1.54331E-002	  1.41440E-002	  1.53368E-002	  1.54290E-002	  1.43476E-002	  9.42461E-003	  7.53977E-003	  7.74006E-003	  9.80717E-003	  1.23033E-002	  1.04471E-002	  8.71028E-003	
  3.07200E-001	  1.38772E-002	  1.46731E-002	  1.32970E-002	  1.39649E-002	  1.38683E-002	  1.35355E-002	  1.39241E-002	  7.92028E-003	  1.32579E-002	  5.83976E-003	  6.17066E-003	  9.78047E-003	  7.90742E-003	  4.56546E-003	
  3.32800E-001	  1.25045E-002	  1.29749E-002	  1.24588E-002	  1.17483E-002	  1.25535E-002	  1.26882E-002	  1.26034E-002	  9.61499E-003	  1.60363E-002	  9.19921E-003	  1.10041E-002	  1.18769E-002	 -9.19389E-004	  1.04929E-002	
  3.58400E-001	  1.19466E-002	  1.31447E-002	  1.20748E-002	  1.12351E-002	  1.19775E-002	  1.15546E-002	  1.16931E-002	  8.25111E-003	  1.18956E-002	  4.95948E-003	  1.18160E-002	  5.92519E-003	  9.59463E-003	  5.31581E-003	
  3.84000E-001	  1.10314E-002	  1.09480E-002	  1.11016E-002	  1.00960E-002	  1.17779E-002	  1.11716E-002	  1.10932E-002	  8.12659E-003	  1.15192E-002	  7.99555E-003	  5.85546E-003	  6.47595E-003	  1.22587E-002	  4.65479E-003	
  4.09600E-001	  1.03664E-002	  1.03528E-002	  1.04984E-002	  9.53983E-003	  1.11778E-002	  1.07486E-002	  9.88103E-003	  5.42240E-003	  4.67377E-003	  6.63630E-003	  6.53661E-003	  6.24391E-003	  4.48864E-003	  3.95514E-003	
  4.60800E-001	  8.97893E-003	  9.75963E-003	  9.84854E-003	  8.30209E-003	  9.06021E-003	  8.23472E-003	  8.66836E-003	  5.93302E-003	  3.11034E-003	  6.29499E-003	  7.82532E-003	  7.74512E-003	  7.69446E-003	  2.92792E-003	
  5.12000E-001	  7.82585E-003	  8.08428E-003	  8.28291E-003	  7.51674E-003	  8.07453E-003	  7.84008E-003	  7.15657E-003	  7.88508E-003	  1.15529E-002	  6.18220E-003	  1.41222E-002	  9.04693E-003	  4.83990E-003	  1.56624E-003	
  5.63200E-001	  6.83050E-003	  6.92410E-003	  6.90248E-003	  6.11269E-003	  7.30847E-003	  7.06541E-003	  6.66985E-003	  6.16093E-003	  5.72339E-003	  6.01154E-003	  7.48419E-003	  6.76404E-003	  6.70969E-003	  4.27274E-003	
  6.14400E-001	  6.63738E-003	  6.66645E-003	  6.91097E-003	  6.03800E-003	  7.40509E-003	  6.81161E-003	  5.99213E-003	  6.20012E-003	  7.45711E-003	  5.57142E-003	  2.85204E-003	  1.08817E-002	  2.66421E-003	  7.77422E-003	
  6.65600E-001	  6.00793E-003	  6.41031E-003	  6.08421E-003	  5.40243E-003	  6.38760E-003	  5.47074E-003	  6.29232E-003	  3.04565E-003	  8.06996E-004	  2.98061E-003	  8.04077E-003	  3.92646E-003	 -1.54800E-004	  2.67385E-003	
  7.16800E-001	  5.52771E-003	  5.57958E-003	  5.19480E-003	  4.82844E-003	  6.59355E-003	  5.20517E-003	  5.76475E-003	  3.79818E-003	  6.74908E-003	  1.09517E-002	 -9.72178E-004	 -1.58977E-003	  4.57446E-003	  3.07581E-003	
  7.68000E-001	  5.39474E-003	  5.58319E-003	  5.18843E-003	  5.00371E-003	  6.42795E-003	  5.40657E-003	  4.75863E-003	  2.44614E-003	  4.59810E-003	  2.76504E-003	  2.26060E-003	  1.64752E-003	  9.86824E-004	  2.41877E-003	
  8.19200E-001	  4.99462E-003	  5.49517E-003	  5.19733E-003	  4.45557E-003	  5.66591E-003	  5.29386E-003	  3.85987E-003	  4.55663E-003	  6.38870E-003	 -2.71212E-004	  3.32471E-003	  6.25591E-003	  6.24046E-003	  5.40121E-003	
  9.21600E-001	  4.35710E-003	  4.75268E-003	  3.97314E-003	  4.39012E-003	  4.96949E-003	  4.10383E-003	  3.95335E-003	  3.41841E-003	  6.60657E-004	  2.41901E-003	  2.15318E-003	  3.14379E-003	  6.95146E-003	  5.18237E-003	
  1.02400E+000	  3.89767E-003	  4.65557E-003	  4.21954E-003	  3.90606E-003	  3.81914E-003	  3.39996E-003	  3.38578E-003	  2.12050E-003	  1.48118E-003	  1.28723E-003	  1.64649E-003	  3.12207E-003	  3.48275E-003	  1.70330E-003	
  1.12640E+000	  3.54943E-003	  4.10118E-003	  3.28542E-003	  3.12560E-003	  3.93334E-003	  3.44541E-003	  3.40560E-003	  6.81212E-004	  4.46042E-003	  5.91096E-004	 -1.30594E-003	  3.02386E-003	 -2.35736E-003	 -3.24812E-004	
  1.22880E+000	  3.21355E-003	  3.76566E-003	  3.22027E-003	  3.20906E-003	  3.36091E-003	  2.60998E-003	  3.11543E-003	  2.50066E-003	  8.08525E-004	  1.24232E-003	 -2.19705E-004	  5.70910E-003	  4.71089E-003	  2.75283E-003	
  1.33120E+000	  2.89756E-003	  2.76767E-003	  3.12479E-003	  2.85715E-003	  2.50545E-003	  3.13817E-003	  2.99216E-003	  3.67138E-003	  2.90505E-003	  9.31073E-005	  5.71368E-003	  5.51811E-003	  3.02782E-003	  4.77049E-003	
  1.43360E+000	  2.65722E-003	  2.81367E-003	  2.59016E-003	  2.67861E-003	  2.81580E-003	  2.44752E-003	  2.59757E-003	  2.39749E-003	  2.78906E-003	  2.54925E-003	  1.18178E-003	  2.96908E-003	  2.78308E-003	  2.11265E-003	
  1.53600E+000	  2.55104E-003	  3.20485E-003	  1.90732E-003	  2.83365E-003	  2.39272E-003	  1.99197E-003	  2.97573E-003	  1.30293E-003	 -9.03163E-004	  1.72287E-003	  1.55037E-003	  1.13074E-003	  3.19213E-003	  1.12461E-003	
  1.63840E+000	  2.33993E-003	  2.26498E-003	  2.17660E-003	  2.53993E-003	  2.29452E-003	  2.18060E-003	  2.58295E-003	  2.90641E-003	  2.95516E-003	  1.76614E-003	  3.20126E-003	  2.35935E-003	  3.32835E-003	  3.82821E-003	
  1.84320E+000	  2.25822E-003	  2.61191E-003	  2.42271E-003	  1.50057E-003	  2.53830E-003	  2.36228E-003	  2.11352E-003	  3.67916E-004	 -3.92685E-004	  2.10623E-003	  5.62337E-004	  1.37603E-003	  1.56918E-004	 -1.60133E-003	
  2.04800E+000	  1.94920E-003	  2.06595E-003	  2.16932E-003	  1.76091E-003	  2.08228E-003	  1.92433E-003	  1.69239E-003	  3.47762E-003	  3.01495E-003	  2.46997E-003	  5.19258E-003	  4.70008E-003	  2.22046E-003	  3.26767E-003	
  2.25280E+000	  1.63421E-003	  1.44698E-003	  1.76417E-003	  1.52351E-003	  1.67307E-003	  1.47434E-003	  1.92322E-003	  2.06310E-003	  2.89623E-003	  7.00141E-004	  4.87162E-003	  4.10170E-003	 -2.28981E-004	  3.78755E-005	
  2.45760E+000	  1.60978E-003	  1.23359E-003	  2.12903E-003	  1.49070E-003	  1.84914E-003	  1.90803E-003	  1.04818E-003	  2.04801E-003	  7.88791E-004	  2.12314E-003	  6.21877E-004	  5.69925E-003	  2.02110E-003	  1.03391E-003	
  2.66240E+000	  1.44103E-003	  9.13124E-004	  1.97561E-003	  8.04261E-004	  1.68780E-003	  1.80538E-003	  1.45998E-003	  4.58543E-004	  2.48008E-003	  1.66629E-003	 -1.77015E-003	  1.01698E-003	  1.26706E-003	 -1.90900E-003	
  2.86720E+000	  1.19981E-003	  9.71905E-004	  1.25881E-003	  8.43254E-004	  1.77746E-003	  7.23972E-004	  1.62347E-003	  5.17629E-004	  1.88369E-003	  9.29290E-004	  1.00898E-003	 -1.82021E-003	 -5.38865E-004	  1.64289E-003	
  3.07200E+000	  1.16962E-003	  9.42212E-004	  1.47453E-003	  9.99942E-004	  1.57267E-003	  7.22448E-004	  1.30590E-003	  1.11789E-003	 -6.12994E-004	  3.79279E-003	 -7.66359E-004	  5.58778E-004	  2.04430E-003	  1.69082E-003	
  3.27680E+000	  1.04712E-003	  6.97507E-004	  1.36989E-003	  8.20723E-004	  1.32042E-003	  5.07532E-004	  1.56665E-003	  2.17085E-003	  2.55340E-003	  4.55606E-003	 -1.75257E-004	  2.36363E-003	  3.01104E-003	  7.16249E-004	
  3.68640E+000	  9.82412E-004	  1.01741E-003	  1.45091E-003	  9.09826E-004	  1.12924E-003	  3.31919E-004	  1.05517E-003	  1.70130E-003	  1.21105E-003	  1.61133E-003	  4.20581E-004	  3.17919E-003	  2.68242E-003	  1.10322E-003	
  4.09600E+000	  8.86256E-004	  8.05888E-004	  1.07138E-003	  8.45542E-004	  7.28339E-004	  8.02256E-004	  1.06413E-003	  1.51432E-003	  1.43178E-003	  3.90473E-003	  1.47803E-003	  1.46060E-003	  1.69534E-003	 -8.84560E-004	
  4.50560E+000	  7.73857E-004	  5.05690E-004	  9.24709E-004	  8.46126E-004	  8.57610E-004	  7.41989E-004	  7.67019E-004	  6.76076E-004	 -2.15404E-003	  1.35830E-003	  8.66013E-004	  3.43468E-003	 -2.20239E-004	  7.71750E-004	
  4.91520E+000	  6.16689E-004	  4.34702E-004	  3.19196E-004	  8.31507E-004	  1.10198E-003	  2.92217E-004	  7.20539E-004	  6.80892E-004	 -4.30175E-004	  6.14265E-004	  2.13447E-003	  3.78651E-003	 -4.94964E-004	 -1.52475E-003	
  5.32480E+000	  5.76233E-004	  3.62991E-004	  2.99179E-004	  7.23948E-004	  6.35466E-004	  8.97184E-004	  5.38631E-004	  8.11318E-004	  4.77167E-004	 -1.74433E-004	  7.27020E-005	  2.28136E-003	  8.70474E-004	  1.34064E-003	
  5.73440E+000	  5.59600E-004	  6.70520E-004	  3.55592E-004	  5.01985E-004	  6.88329E-004	  3.34833E-004	  8.06343E-004	  4.14100E-004	  1.18142E-004	 -6.00522E-004	  2.24762E-004	  1.10792E-003	  1.10623E-003	  5.28075E-004	
  6.14400E+000	  4.72731E-004	  1.16192E-003	  3.17843E-004	  2.80950E-004	  4.42553E-005	  5.20518E-004	  5.10901E-004	 -5.75945E-005	 -1.44994E-003	  2.21279E-004	  4.91266E-004	 -8.03268E-004	  7.43304E-004	  4.51788E-004	
  6.45120E+000	  4.93517E-004	  8.55363E-004	  4.02784E-004	  2.20055E-004	  5.80101E-004	  3.22814E-004	  5.79983E-004	  4.26270E-004	 -6.39047E-004	  1.09354E-003	  1.44969E-003	  1.49197E-004	  8.44266E-005	  4.19819E-004	
  7.27040E+000	  4.07251E-004	  5.34098E-004	  6.83493E-004	  1.23966E-004	  6.24116E-004	 -2.17060E-004	  6.94889E-004	  3.09952E-004	  7.65062E-004	 -1.54170E-004	  1.03402E-004	  1.08474E-003	 -1.21413E-003	  1.27480E-003	
  8.08960E+000	  4.98676E-004	  7.15260E-004	  7.16565E-004	  2.67138E-004	  4.93515E-004	  2.63645E-004	  5.35931E-004	  6.34697E-004	  1.19271E-005	  1.25359E-003	 -3.97581E-004	  1.60746E-003	  2.06543E-004	  1.12624E-003	
  8.90880E+000	  4.12649E-004	  3.14171E-004	  3.79147E-004	  2.83644E-004	  4.02233E-004	  4.84765E-004	  6.11937E-004	  2.12426E-004	 -1.99122E-005	  1.00331E-003	 -3.95926E-004	  1.84296E-004	  3.74881E-004	  1.27906E-004	
  9.72800E+000	  4.87196E-004	  5.29321E-004	  5.15169E-004	  1.13673E-004	  6.13196E-004	  6.88675E-004	  4.63141E-004	  2.83170E-004	 -6.53706E-004	 -3.37083E-004	  9.10019E-004	  8.56863E-004	  1.52868E-004	  7.70059E-004	
  1.05472E+001	  3.46806E-004	  9.81775E-005	  5.28642E-004	  4.54381E-004	  3.33513E-004	  3.39270E-004	  3.26853E-004	  7.87036E-004	  1.57890E-003	  4.18625E-004	  1.31207E-003	  1.34721E-003	 -4.69395E-004	  5.34804E-004	
  1.13664E+001	  3.11068E-004	  2.89781E-004	  2.94588E-004	  3.87898E-004	  7.07172E-004	  1.47821E-004	  3.91484E-005	 -6.10046E-007	 -4.47224E-004	 -1.30618E-003	  1.05162E-003	  9.36500E-004	 -2.85615E-005	 -2.09819E-004	
  1.21856E+001	  3.06554E-004	  5.61773E-004	  9.19619E-005	  5.79569E-004	  3.33649E-004	  1.44312E-004	  1.28056E-004	  3.64658E-004	  8.91507E-004	  3.31935E-004	 -1.54688E-003	  6.06374E-004	  1.77268E-003	  1.32333E-004	
  1.30048E+001	  2.55700E-004	  7.29242E-004	  1.20518E-004	  4.42733E-004	  2.30674E-004	  7.03744E-005	 -5.93385E-005	  2.96785E-005	  5.52548E-005	 -2.85232E-005	  2.75573E-004	  7.74584E-006	  3.96468E-004	 -5.28448E-004	
  1.46432E+001	  2.40183E-004	  4.37903E-004	  4.21539E-004	  2.28259E-004	  1.91510E-004	  3.94259E-005	  1.22459E-004	  3.00642E-004	 -6.80963E-005	  2.85204E-004	  1.01639E-003	  5.32045E-005	  1.03831E-004	  4.13320E-004	
  1.62816E+001	  2.70112E-004	  3.86764E-004	  5.14931E-005	  2.11164E-004	  4.37344E-004	  3.02511E-004	  2.31398E-004	  3.05500E-004	  1.10325E-003	  3.67259E-004	  1.52197E-004	 -2.66622E-004	  3.67783E-004	  1.09128E-004	
  1.79200E+001	  2.84104E-004	  3.54882E-004	  1.84576E-004	  1.59809E-004	  2.76265E-004	  3.37938E-004	  3.91156E-004	  2.32058E-004	  3.77499E-004	  4.20994E-005	  1.44691E-003	  3.36653E-004	 -3.38591E-004	 -4.72225E-004	
  1.95584E+001	  3.35680E-004	  2.55783E-004	  2.47164E-004	  3.55233E-004	  4.21200E-004	  3.73299E-004	  3.61399E-004	 -1.13085E-004	 -1.91235E-003	  5.22620E-004	 -2.30806E-004	  3.43485E-004	 -8.06268E-005	  6.79167E-004	
  2.11968E+001	  3.35129E-004	  2.26167E-004	  4.74302E-004	  7.18506E-004	  2.18796E-004	  5.13129E-005	  3.21691E-004	  2.19672E-004	 -1.11495E-004	  9.26108E-004	 -9.85260E-005	 -6.39727E-004	  3.10652E-004	  9.31021E-004	
  2.28352E+001	  1.45839E-004	  3.39968E-004	  2.94790E-004	  1.09388E-004	  6.01206E-005	  3.72559E-004	 -3.01789E-004	  6.43378E-005	 -1.72952E-004	 -5.01530E-004	  1.14627E-003	 -2.34876E-004	 -4.05252E-004	  5.54365E-004	
  2.44736E+001	  1.74259E-004	  7.20972E-004	  9.85154E-005	 -4.12496E-005	  8.98658E-005	  1.16267E-004	  6.11848E-005	  5.44841E-004	  3.76137E-004	  4.74541E-004	  1.38180E-005	  7.75576E-004	  7.85047E-004	  8.43925E-004	
  2.61120E+001	  1.91086E-004	  3.48872E-004	 -1.31065E-004	  2.65892E-004	  8.52136E-005	  3.78304E-004	  1.99297E-004	  3.88183E-004	  1.05128E-003	 -2.73552E-004	 -7.58882E-005	  1.22060E-004	  9.40168E-004	  5.65023E-004	
  2.93888E+001	  1.93253E-004	  7.47614E-005	  2.16501E-004	  1.87827E-004	  2.75467E-004	  1.11701E-004	  2.93262E-004	 -4.63387E-005	 -6.60592E-004	  9.95783E-005	  3.39481E-004	  6.59641E-005	 -2.76752E-004	  1.54287E-004	
  3.26656E+001	  1.64145E-004	  3.90187E-004	  1.57026E-004	 -2.21698E-004	  2.53978E-004	  9.34556E-005	  3.11925E-004	  1.78426E-004	  1.31374E-004	 -7.76801E-004	  5.51744E-004	  7.20002E-004	 -3.27891E-004	  7.72131E-004	
  3.59424E+001	  1.22187E-004	  7.77814E-005	  1.57570E-004	 -8.87521E-006	  3.48702E-004	 -1.59600E-004	  3.17546E-004	  1.71048E-005	  3.57170E-004	 -1.58136E-004	 -7.14846E-004	  9.62393E-004	 -3.01062E-004	 -4.28889E-005	
  3.92192E+001	  9.32267E-005	 -2.04572E-006	  2.79526E-004	 -3.20402E-005	 -8.97088E-005	  9.69225E-005	  3.06707E-004	  2.25280E-004	  1.96248E-004	 -2.65269E-005	  5.39167E-004	  8.23154E-004	  1.95851E-005	 -1.99946E-004	
  4.24960E+001	  1.17688E-004	  7.89348E-005	  9.08889E-005	  1.14570E-004	  7.40805E-005	  1.84145E-004	  1.63510E-004	 -1.50305E-004	 -2.54436E-004	 -4.53667E-004	  5.58421E-004	 -3.66792E-004	 -3.96925E-004	  1.15693E-005	
  4.57728E+001	  1.34418E-004	 -3.00107E-005	  4.78294E-005	 -2.42306E-005	  3.08681E-005	  3.85913E-004	  3.96139E-004	 -1.68425E-004	 -2.30282E-004	 -3.84683E-004	  5.05249E-004	 -5.77132E-005	 -5.57876E-004	 -2.85248E-004	
  4.90496E+001	  1.39340E-004	  4.41718E-005	  5.92788E-005	  4.02940E-005	  1.27681E-004	  1.82879E-004	  3.81733E-004	  6.80900E-006	 -3.82656E-004	 -4.58996E-004	  3.21918E-004	 -8.66166E-005	  4.81747E-004	  1.65458E-004	
  5.23264E+001	  9.15656E-005	  1.05162E-004	 -3.73827E-005	 -1.29870E-005	  1.14202E-005	  9.60679E-005	  3.87114E-004	  2.64876E-004	  2.09166E-004	 -1.89849E-004	  2.69415E-004	  4.49233E-004	  1.59041E-004	  6.92250E-004	
  5.88800E+001	  8.64391E-005	  1.22342E-005	  7.82055E-005	  1.20773E-004	  8.98365E-005	 -6.50201E-005	  2.82605E-004	 -1.45409E-004	 -7.65826E-004	 -6.33699E-004	  5.45451E-004	  1.01683E-005	  7.74456E-005	 -1.05995E-004	
  6.54336E+001	  1.17366E-004	  2.22146E-004	  1.24876E-005	  1.01794E-004	  4.62229E-006	  2.57253E-004	  1.05892E-004	  5.15359E-005	 -8.30222E-005	  1.62312E-004	  1.42533E-004	  2.76421E-004	 -3.55065E-004	  1.66036E-004	
  7.19872E+001	  1.12191E-004	  9.66765E-006	  3.81187E-004	 -1.53560E-004	  2.29735E-004	  4.63158E-005	  1.59800E-004	  1.62364E-004	  1.03647E-004	  5.16550E-004	  3.21977E-004	  2.68137E-004	 -2.93561E-004	  5.74358E-005	
  7.85408E+001	  9.14242E-005	  8.39177E-005	  9.62412E-005	  6.75359E-005	  1.10745E-004	  5.51139E-005	  1.34991E-004	  5.62936E-005	 -7.40754E-004	 -2.48989E-004	  4.94474E-004	  6.23663E-004	  3.36918E-004	 -1.27551E-004	
  8.50944E+001	  8.52980E-005	  1.58821E-004	  1.96243E-004	 -5.96754E-005	 -8.12533E-005	  1.37403E-004	  1.60250E-004	  1.56166E-004	  3.47216E-004	 -2.80457E-004	  1.13835E-004	 -1.29928E-004	  2.73613E-004	  6.12718E-004	
  9.16480E+001	  7.42482E-005	  1.05242E-004	  3.76382E-005	  1.35441E-005	 -6.60206E-005	  1.42209E-004	  2.12876E-004	 -8.56554E-005	  5.15014E-005	 -1.31348E-004	  3.57771E-005	 -3.76192E-004	 -1.42895E-004	  4.92240E-005	
  9.82016E+001	  4.79769E-005	  3.31108E-006	  1.61143E-004	  8.19094E-006	  9.40584E-005	 -1.14128E-004	  1.35286E-004	  6.38365E-005	 -5.89350E-004	  4.18999E-004	  2.04994E-004	  2.73279E-005	 -3.86389E-004	  7.07438E-004	
  1.04755E+002	  7.20294E-005	 -1.33809E-004	  1.18513E-004	  7.63175E-005	  1.45432E-004	 -2.73411E-006	  2.28456E-004	  1.66017E-004	  1.02969E-004	  4.63406E-004	  1.46590E-004	 -3.30227E-005	 -1.71148E-004	  4.87305E-004	
  1.17862E+002	  8.57169E-005	  7.11226E-005	 -2.24653E-005	  2.52346E-005	  2.17859E-004	  7.28514E-006	  2.15265E-004	 -1.41158E-004	 -3.98522E-005	  6.20266E-006	  2.50663E-004	 -2.81735E-004	 -3.30921E-004	 -4.51307E-004	
  1.30970E+002	  3.43173E-005	  2.23411E-005	 -8.05233E-006	  3.78534E-005	 -2.09015E-005	 -3.49143E-005	  2.09577E-004	  1.79260E-004	  1.73886E-004	  1.22123E-004	  4.66426E-004	 -3.91567E-004	  8.01240E-005	  6.24572E-004	
  1.44077E+002	  4.55947E-005	  7.10765E-005	  1.55134E-005	 -1.21889E-005	  1.23187E-004	 -2.01536E-005	  9.61336E-005	  8.46552E-005	  2.03843E-005	  1.09640E-004	 -7.68947E-006	 -1.24047E-004	  2.23725E-004	  2.85919E-004	
  1.57184E+002	  4.33006E-005	  8.25812E-005	 -1.01252E-005	 -4.48325E-005	  9.55264E-005	  6.61448E-005	  7.05092E-005	  6.40853E-005	  9.91351E-005	 -5.31582E-005	 -1.34835E-004	  4.93195E-005	  3.32227E-004	  9.18240E-005	
  1.70291E+002	  4.37127E-005	 -1.21205E-004	  3.27714E-005	  1.39287E-004	 -6.74404E-005	  1.41899E-004	  1.36965E-004	  5.51515E-005	 -5.35072E-004	  1.11785E-004	 -1.03397E-004	  3.89013E-004	  8.31958E-005	  3.85384E-004	
  1.83398E+002	  9.94352E-005	 -6.11899E-005	  1.31873E-004	 -3.50295E-005	  3.12011E-005	  1.56106E-004	  3.73652E-004	  2.36051E-004	 -9.00759E-005	  1.37497E-004	  4.84507E-005	  6.53609E-004	  1.62667E-004	  5.04159E-004	
  1.96506E+002	  1.18177E-004	  1.06484E-004	  1.10512E-005	  2.61794E-004	 -5.29004E-005	  2.00881E-004	  1.81755E-004	  1.86958E-004	  9.03288E-005	 -2.26658E-005	  4.15662E-004	  3.23357E-004	  1.44325E-004	  1.70743E-004	
  2.09613E+002	  8.08310E-005	  1.18044E-004	  6.66930E-006	  7.38480E-005	  8.65173E-005	  1.17173E-004	  8.27346E-005	  4.84789E-005	 -2.66655E-004	 -1.20455E-004	  2.42526E-004	  3.98695E-005	  9.52659E-005	  3.00322E-004	
  2.35827E+002	  5.34223E-005	  4.41403E-005	 -6.37235E-005	  7.47494E-005	  9.24440E-005	  1.26388E-004	  4.65356E-005	 -2.01667E-005	  1.69763E-004	  3.39361E-005	 -4.87245E-005	 -2.78029E-005	 -3.06527E-004	  5.83551E-005	
  2.62042E+002	  5.08545E-005	  7.03946E-005	 -1.01273E-004	 -3.57880E-006	  9.79701E-005	  1.65157E-004	  7.64571E-005	  7.91997E-006	 -1.07699E-004	  6.96733E-005	  9.52816E-005	 -1.30670E-004	 -6.18827E-005	  1.82817E-004	
  2.88256E+002	  7.87635E-005	  1.91999E-004	  3.95467E-005	  2.77686E-005	  1.34023E-005	  5.17033E-005	  1.48161E-004	  1.11126E-004	  3.26194E-004	  4.03017E-005	  8.07348E-005	 -1.10471E-004	  3.38821E-004	 -8.82516E-006	
  3.14470E+002	  7.18754E-005	  8.84756E-005	 -1.09774E-004	  8.30763E-005	  1.41121E-004	  5.77070E-005	  1.70646E-004	  2.26281E-005	  1.87936E-004	  1.75903E-004	 -1.04994E-004	 -3.38106E-005	  7.95093E-005	 -1.68775E-004	
  3.40685E+002	  8.24054E-005	  1.84879E-004	 -6.67073E-005	  2.05105E-004	  6.75344E-005	  7.14951E-006	  9.64717E-005	  1.15621E-005	 -1.75147E-004	  1.15900E-004	  3.84107E-005	  8.60261E-005	 -1.91563E-005	  2.33390E-005	
  3.66899E+002	  1.81650E-006	 -5.63257E-005	  7.84463E-005	 -6.34562E-005	  1.40715E-005	  2.61030E-005	  1.20601E-005	 -4.60026E-005	 -9.25323E-005	 -1.16019E-004	  1.40691E-004	 -2.03540E-004	 -1.43464E-004	  1.38850E-004	
  3.93114E+002	  3.24853E-005	  2.57612E-005	  1.31812E-005	  5.33956E-005	  5.94947E-006	  3.27719E-005	  6.38524E-005	 -5.87842E-005	 -5.65982E-005	 -2.92887E-005	 -1.67239E-004	 -1.25662E-004	 -1.33763E-004	  1.59845E-004	
  4.19328E+002	  1.44445E-005	  3.62817E-005	 -7.18675E-005	  4.10299E-005	 -4.08664E-005	 -1.08009E-005	  1.32890E-004	 -5.62074E-005	 -2.66112E-005	 -1.24685E-004	 -1.40735E-004	 -2.20732E-004	  6.45391E-005	  1.10979E-004	
  4.71757E+002	  2.97829E-005	 -3.13431E-005	 -3.98152E-005	  7.54081E-005	 -3.91760E-005	  1.26297E-004	  8.73266E-005	  7.54539E-005	  1.20956E-004	 -8.02074E-005	  9.43523E-005	 -2.11142E-005	  8.26955E-005	  2.56041E-004	
  5.24186E+002	  5.41572E-006	  5.78111E-005	 -6.52861E-005	 -7.42798E-006	 -2.33883E-005	  3.36457E-005	  3.71400E-005	 -2.95853E-005	  2.00384E-005	 -1.69165E-004	 -1.22486E-004	  3.51318E-005	  2.17313E-005	  3.72386E-005	
  5.76614E+002	  3.14374E-005	  4.42731E-005	  6.33357E-005	 -1.35451E-006	  9.84632E-005	 -7.53115E-005	  5.92181E-005	  6.76381E-005	  3.17104E-004	 -2.11257E-005	 -1.63561E-004	  1.16903E-004	  2.08942E-004	 -5.24334E-005	
  6.29043E+002	  1.89585E-005	  3.15563E-006	 -4.82446E-006	  1.16686E-004	  2.93781E-005	 -1.37838E-005	 -1.68608E-005	  4.80278E-005	 -5.12279E-005	 -4.52197E-005	 -1.10229E-005	  3.12229E-004	  3.23054E-006	  8.01784E-005	
  6.81472E+002	  2.43772E-005	  3.23283E-005	 -1.30895E-005	  9.16803E-005	  2.91525E-005	  1.77634E-005	 -1.15719E-005	  6.49629E-005	  1.86452E-004	  3.24367E-005	 -6.98085E-005	  1.74737E-005	  2.21578E-005	  2.01066E-004	
  7.33901E+002	 -4.77883E-006	  2.57858E-006	 -7.70671E-005	  3.79195E-005	 -9.86654E-005	  8.59235E-005	  2.06380E-005	 -2.27131E-006	 -5.19767E-005	 -2.15032E-005	  5.43989E-005	  3.57198E-005	 -4.06589E-005	  1.03922E-005	
  7.86330E+002	  3.80832E-005	  8.50034E-005	 -3.35374E-005	  9.39459E-005	 -9.49680E-005	  9.58887E-005	  8.21668E-005	  7.30167E-005	  1.30356E-004	 -2.42441E-005	  1.69384E-004	  2.81195E-005	  2.10873E-004	 -7.63881E-005	
  8.38758E+002	  1.05946E-005	 -5.52276E-006	 -9.43694E-006	  3.59997E-005	 -4.46539E-005	 -3.11230E-005	  1.18305E-004	  6.98727E-005	 -1.12281E-004	 -1.87343E-005	  1.06362E-004	  3.13330E-005	  2.02870E-004	  2.09686E-004	
  9.43616E+002	  4.04409E-005	 -1.99746E-005	 -3.59040E-006	  4.36022E-005	  5.95095E-005	  4.47582E-005	  1.18341E-004	  9.88043E-005	  6.99144E-005	  4.83054E-005	  2.67732E-004	 -4.95131E-006	  9.82391E-006	  2.02001E-004	
  1.04847E+003	  2.10374E-005	  1.31915E-005	 -6.14114E-005	  8.89905E-006	 -3.41977E-005	  5.08740E-005	  1.48869E-004	  8.78924E-005	  1.00396E-004	 -5.38250E-005	  2.51523E-004	 -3.96705E-005	  4.51728E-005	  2.23757E-004	
  1.15333E+003	  8.60007E-006	 -2.77311E-005	 -3.19365E-005	  2.81528E-005	 -7.46557E-005	  1.51401E-006	  1.56257E-004	  5.38998E-006	  6.43603E-005	 -2.32076E-004	  7.70808E-005	  9.98005E-005	 -7.58908E-005	  9.90648E-005	
  1.25819E+003	  3.28616E-006	 -8.04098E-005	 -4.76177E-005	  6.01106E-005	 -7.14972E-005	  2.20369E-005	  1.37094E-004	  1.57960E-005	 -4.87438E-005	 -9.79622E-005	 -4.20394E-005	  1.00130E-004	  7.98547E-005	  1.03536E-004	
  1.36305E+003	  2.62421E-005	  9.24007E-005	  4.14987E-006	  2.30683E-006	 -3.50837E-005	  5.39726E-006	  8.82819E-005	 -5.98578E-005	 -4.09293E-005	 -1.78408E-004	 -1.35496E-004	 -8.28338E-005	 -6.27775E-005	  1.41297E-004	
  1.46790E+003	  3.59114E-005	 -3.02276E-005	  6.82296E-005	  1.54523E-005	  2.56307E-005	  2.82384E-006	  1.33560E-004	  1.37841E-005	 -4.53584E-005	  1.41650E-004	 -4.39191E-005	 -1.58040E-004	  6.42898E-005	  1.24082E-004	
  1.57276E+003	  3.14746E-005	 -8.22419E-005	  4.72360E-005	  3.26079E-005	  6.16046E-005	 -1.61647E-005	  1.45806E-004	  4.69955E-005	  4.09280E-005	  1.29967E-004	  5.81384E-005	  1.31051E-005	 -6.97994E-005	  1.09634E-004	
  1.67762E+003	  2.04012E-005	  9.15339E-006	 -2.74528E-005	  7.34571E-005	 -2.90675E-006	 -2.00366E-006	  7.21600E-005	  5.99271E-005	  4.79320E-005	  9.17083E-005	  1.40207E-004	  4.34888E-005	 -7.12486E-005	  1.07475E-004	
  1.88733E+003	  3.26486E-005	  8.93215E-006	 -6.40576E-007	  2.79305E-005	  3.16297E-005	 -8.15627E-006	  1.36196E-004	  3.82222E-005	 -6.82627E-006	  6.73614E-005	 -4.04226E-005	  1.00332E-004	  1.86833E-006	  1.07020E-004	
  2.09705E+003	  2.10518E-005	  4.25107E-005	  2.63491E-005	 -2.88479E-005	 -3.78406E-005	  1.03284E-005	  1.13811E-004	 -5.52236E-006	  1.27201E-006	 -1.62882E-005	 -1.46510E-005	 -1.61938E-004	  1.02430E-005	  1.48228E-004	
  2.30676E+003	  2.87466E-006	  5.75381E-006	 -1.80806E-006	  2.71866E-005	 -7.43605E-005	 -4.67303E-005	  1.07206E-004	 -3.67862E-006	 -6.37063E-005	 -6.20923E-005	  1.02074E-004	 -5.70495E-006	 -9.13088E-005	  9.86664E-005	
  2.51648E+003	  3.04494E-005	  4.11110E-005	 -1.65722E-005	 -4.73369E-006	  6.82990E-005	  1.51869E-005	  7.94055E-005	  4.23745E-005	 -6.24498E-006	  3.70158E-005	  1.26056E-004	  7.63183E-005	 -5.47950E-005	  7.58973E-005	
  2.72620E+003	 -9.57781E-006	 -1.46590E-005	 -2.19593E-005	  1.41586E-005	 -4.74441E-005	 -2.97273E-005	  4.21643E-005	 -1.21192E-005	 -6.95000E-005	 -1.74263E-004	 -1.52682E-005	 -4.31840E-005	  9.54593E-005	  1.34040E-004	
  2.93591E+003	  2.83546E-005	  6.99444E-006	  2.21867E-005	  3.88477E-005	  1.81024E-005	  1.73131E-005	  6.66834E-005	  4.81683E-005	  7.69911E-005	 -9.08976E-005	  1.34294E-004	 -3.66909E-005	  2.68483E-005	  1.78464E-004	
  3.14563E+003	 -1.73606E-005	 -1.19349E-004	  1.28300E-005	  1.75844E-005	 -5.00653E-005	 -8.26388E-006	  4.31003E-005	 -2.99563E-005	 -5.24015E-005	 -1.94746E-005	 -3.10173E-005	 -1.61836E-005	 -1.18081E-004	  5.74198E-005	
  3.35534E+003	  5.79466E-006	 -5.33377E-005	  6.84668E-006	  1.54139E-005	 -2.32369E-006	 -2.03911E-005	  8.85599E-005	 -1.86088E-005	 -6.87089E-005	 -6.60901E-005	 -4.50674E-006	  4.61715E-005	 -3.54971E-005	  1.69785E-005	
  3.77477E+003	  8.64635E-006	 -2.18712E-005	 -1.92585E-005	 -4.46867E-006	  1.31286E-005	  3.50901E-006	  8.08389E-005	  4.35661E-005	  6.41818E-005	  1.37302E-005	  2.39571E-005	  1.00551E-005	 -3.05670E-005	  1.80040E-004	
  4.19420E+003	  2.77413E-005	  3.92293E-005	  1.36594E-005	 -1.00664E-005	  9.08634E-006	  8.39279E-006	  1.06147E-004	 -2.43108E-006	 -3.61799E-005	  7.31703E-005	 -9.03701E-005	  1.58607E-005	 -1.07508E-006	  2.40077E-005	
  4.61363E+003	  8.07578E-007	  3.66533E-005	  2.29154E-005	  1.74955E-005	 -8.86840E-005	  1.66901E-005	 -2.24863E-007	  7.34625E-006	  4.65401E-006	  1.96280E-005	  1.40847E-005	 -5.54473E-006	 -6.67259E-005	  7.79814E-005	
  5.03306E+003	 -1.01004E-006	 -4.76461E-005	  2.78184E-005	  2.89814E-005	 -2.10461E-006	  1.18378E-006	 -1.42932E-005	 -8.46397E-006	 -8.90806E-005	  2.99451E-005	 -2.60905E-005	 -2.41979E-006	  1.46224E-005	  2.22395E-005	
  5.45249E+003	  7.23495E-006	 -1.56402E-005	 -1.85935E-005	  1.28714E-005	 -1.13997E-006	  2.16041E-005	  4.43079E-005	  2.47628E-006	 -1.95433E-006	 -2.61664E-005	 -1.46254E-004	  9.00278E-005	  5.98259E-005	  3.93783E-005	
  5.87192E+003	 -5.39453E-006	 -1.39510E-005	 -5.31360E-005	 -2.01833E-005	 -2.47246E-005	  2.07663E-005	  5.88614E-005	  1.68390E-005	 -2.50727E-005	  3.45986E-005	 -3.63848E-006	 -7.86376E-005	  8.03505E-005	  9.34339E-005	
  6.29135E+003	  6.00774E-006	 -8.60030E-006	  1.88996E-005	  7.61448E-006	 -3.50117E-005	  1.69368E-005	  3.62075E-005	  8.66122E-006	 -2.50232E-006	 -3.45802E-005	 -3.00353E-005	  6.35887E-005	  1.67573E-005	  3.87392E-005	

"Count Rate"
       0.11719	      87.20771	       8.85223
       0.23438	      85.25288	       8.59614
       0.35156	      83.80170	       9.26198
       0.46875	      87.13942	       8.76687
       0.58594	      80.48958	       8.29737
       0.70313	      87.41258	       8.62175
       0.82031	      84.63826	       8.16932
       0.93750	      85.63702	       9.09125
       1.05469	      84.42485	       8.51078
       1.17188	      88.75280	       8.39980
       1.28906	      86.04677	       8.66443
       1.40625	      87.01991	       8.86930
       1.52344	      84.48460	       8.94613
       1.64063	      82.92245	       8.45102
       1.75781	      83.99803	       8.20347
       1.87500	      84.91142	       8.68150
       1.99219	      86.62724	       8.74979
       2.10938	      83.75901	       8.33151
       2.22656	      85.17606	       8.50224
       2.34375	      85.96994	       9.09125
       2.46094	      87.40405	       8.80955
       2.57813	      86.34554	       8.78394
       2.69531	      84.68948	       8.63882
       2.81250	      86.37968	       8.58760
       2.92969	      81.75296	       8.17786
       3.04688	      79.21766	       7.95591
       3.16406	      86.26018	       8.74126
       3.28125	      83.73341	       8.40834
       3.39844	      84.57851	       8.67297
       3.51563	      86.34554	       8.82662
       3.63281	      86.98576	       8.63029
       3.75000	      86.45651	       9.49246
       3.86719	      88.13818	       8.57053
       3.98438	      83.71633	       8.58760
       4.10156	      84.19437	       8.26322
       4.21875	      84.26266	       8.43395
       4.33594	      83.63950	       8.69004
       4.45313	      88.71011	       8.56199
       4.57031	      83.17001	       8.60468
       4.68750	      90.76739	       9.05711
       4.80469	      90.52837	       9.39002
       4.92188	      84.39071	       8.42541
       5.03906	      87.17357	       8.67297
       5.15625	      84.21144	       8.61321
       5.27344	      85.61994	       8.71565
       5.39063	      82.25661	       8.41688
       5.50781	      86.86626	       8.80101
       5.62500	      85.96140	       9.10832
       5.74219	      86.87479	       9.08271
       5.85938	      83.95535	       8.05835
       5.97656	      83.04195	       8.56199
       6.09375	      86.47359	       8.82662
       6.21094	      89.66619	       8.69004
       6.32813	      83.73341	       8.66443
       6.44531	      84.99679	       8.47663
       6.56250	      85.22727	       8.74979
       6.67969	      85.29556	       8.73272
       6.79688	      84.63826	       8.19493
       6.91406	      79.96032	       8.22054
       7.03125	      85.82482	       8.33151
       7.14844	      88.13818	       8.97174
       7.26563	      84.85167	       8.71565
       7.38281	      87.13088	       8.69004
       7.50000	      82.81148	       8.81809
       7.61719	      86.20895	       8.99735
       7.73438	      85.51751	       8.52785
       7.85156	      83.04195	       8.52785
       7.96875	      86.95162	       8.76687
       8.08594	      87.20771	       9.11686
       8.20313	      85.45776	       8.40834
       8.32031	      83.13586	       8.33151
       8.43750	      86.70406	       8.69004
       8.55469	      83.63097	       8.10957
       8.67188	      88.39427	       8.30590
       8.78906	      87.65160	       9.35588
       8.90625	      88.15525	       8.74126
       9.02344	      87.42112	       8.73272
       9.14063	      85.70531	       8.99735
       9.25781	      87.46381	       8.80101
       9.37500	      83.55414	       8.41688
       9.49219	      80.46397	       8.33151
       9.60938	      83.99803	       8.53639
       9.72656	      88.67597	       9.04857
       9.84375	      85.36385	       8.68150
       9.96094	      90.98933	       9.32173
      10.07813	      88.41135	       8.98881
      10.19531	      86.24310	       9.07418
      10.31250	      82.82001	       8.12664
      10.42969	      86.26018	       8.48517
      10.54688	      88.49670	       9.10832
      10.66406	      84.40778	       8.70711
      10.78125	      86.20895	       8.77540
      10.89844	      85.21020	       8.72419
      11.01563	      82.70904	       9.16808
      11.13281	      84.54436	       8.80101
      11.25000	      85.95287	       8.87784
      11.36719	      90.01618	       8.81809
      11.48438	      86.34554	       8.53639
      11.60156	      88.51378	       9.22783
      11.71875	      86.64431	       8.93760
      11.83594	      90.67348	       8.86930
      11.95313	      89.07718	       9.01442
      12.07031	      90.19545	       9.12540
      12.18750	      86.49065	       9.10832
      12.30469	      87.02845	       9.22783
      12.42188	      88.26623	       9.05711
      12.53906	      82.64928	       8.74126
      12.65625	      86.26871	       8.57053
      12.77344	      86.76382	       8.98881
      12.89063	      83.69072	       8.65590
      13.00781	      86.48212	       8.66443
      13.12500	      83.07610	       8.47663
      13.24219	      88.81255	       8.53639
      13.35938	      84.23705	       8.19493
      13.47656	      87.24186	       9.01442
      13.59375	      86.05530	       8.69004
      13.71094	      86.49065	       8.54492
      13.82813	      82.01759	       8.37419
      13.94531	      81.56516	       8.00713
      14.06250	      85.27849	       8.48517
      14.17969	      84.31388	       8.78394
      14.29688	      86.34554	       8.69858
      14.41406	      86.56748	       8.77540
      14.53125	      85.09923	       8.84370
      14.64844	      84.08340	       8.73272
      14.76563	      85.61141	       9.00589
      14.88281	      80.89079	       8.60468
      15.00000	      81.95783	       8.75833
      15.11719	      82.35051	       8.75833
      15.23438	      87.56624	       8.63029
      15.35156	      84.60412	       8.33151
      15.46875	      85.44922	       8.91199
      15.58594	      88.18086	       9.33881
      15.70313	      84.43339	       8.57907
      15.82031	      84.77484	       8.51078
      15.93750	      84.79192	       8.99735
      16.05469	      86.40530	       8.98881
      16.17188	      88.25769	       8.49370
      16.28906	      83.25536	       8.54492
      16.40625	      84.59558	       9.09979
      16.52344	      85.18459	       9.07418
      16.64063	      82.79440	       9.04857
      16.75781	      81.52248	       7.78518
      16.87500	      84.21998	       8.51078
      16.99219	      82.99928	       8.99735
      17.10938	      83.34927	       8.35712
      17.22656	      83.50292	       8.37419
      17.34375	      82.48709	       8.72419
      17.46094	      84.54436	       8.45956
      17.57813	      85.32117	       8.79248
      17.69531	      86.81504	       8.65590
      17.81250	      85.62848	       8.88638
      17.92969	      85.08215	       9.49246
      18.04688	      86.02116	       8.32298
      18.16406	      85.96140	       8.66443
      18.28125	      82.10295	       8.46809
      18.39844	      84.31388	       8.63029
      18.51563	      81.87247	       8.22054
      18.63281	      85.10777	       9.04857
      18.75000	      83.17854	       8.73272
      18.86719	      85.22727	       8.40834
      18.98438	      82.87123	       8.51078
      19.10156	      84.89436	       8.56199
      19.21875	      86.51627	       8.87784
      19.33594	      87.51502	       9.22783
      19.45313	      85.64555	       9.18515
      19.57031	      89.22230	       8.98881
      19.68750	      85.30410	       8.25468
      19.80469	      82.07735	       7.98152
      19.92188	      85.32971	       8.37419
      20.03906	      85.50897	       8.06688
      20.15625	      81.61638	       8.51931
      20.27344	      82.15417	       8.27176
      20.39063	      86.55042	       9.17661
      20.50781	      87.54063	       8.21200
      20.62500	      82.79440	       8.68150
      20.74219	      86.09798	       7.86201
      20.85938	      85.43214	       8.71565
      20.97656	      80.83957	       8.67297
      21.09375	      85.61141	       8.95467
      21.21094	      85.27849	       8.50224
      21.32813	      80.02007	       8.12664
      21.44531	      82.45295	       8.38273
      21.56250	      86.21749	       8.91199
      21.67969	      84.97118	       8.37419
      21.79688	      81.59930	       8.15225
      21.91406	      87.32722	       8.72419
      22.03125	      86.33700	       8.43395
      22.14844	      84.68095	       8.57053
      22.26563	      83.50292	       8.83516
      22.38281	      81.54809	       8.70711
      22.50000	      83.32365	       8.78394
      22.61719	      80.83957	       8.16932
      22.73438	      82.48709	       8.61321
      22.85156	      85.79921	       8.61321
      22.96875	      84.96265	       8.03274
      23.08594	      85.45776	       8.50224
      23.20313	      83.01635	       8.83516
      23.32031	      86.07237	       8.98881
      23.43750	      82.39319	       8.28883
      23.55469	      81.68467	       8.04128
      23.67188	      82.80294	       8.47663
      23.78906	      86.55894	       8.38273
      23.90625	      88.06135	       8.86930
      24.02344	      81.12981	       8.22908
      24.14063	      83.61389	       8.28883
      24.25781	      80.34446	       8.47663
      24.37500	      83.44317	       8.58760
      24.49219	      80.81396	       7.84494
      24.60938	      83.70779	       8.75833
      24.72656	      81.77857	       8.52785
      24.84375	      82.99928	       8.80101
      24.96094	      86.52480	       8.92052
      25.07813	      85.75653	       8.38273
      25.19531	      84.11754	       8.67297
      25.31250	      84.76630	       8.67297
      25.42969	      84.23705	       8.81809
      25.54688	      83.26390	       8.24615
      25.66406	      82.09442	       8.46809
      25.78125	      81.88954	       8.11810
      25.89844	      82.62367	       8.84370
      26.01563	      85.05654	       8.25468
      26.13281	      84.44193	       8.34005
      26.25000	      79.10668	       7.99006
      26.36719	      83.77608	       8.23761
      26.48438	      81.71882	       8.26322
      26.60156	      81.37737	       8.13518
      26.71875	      82.34197	       8.11810
      26.83594	      82.32490	       8.20347
      26.95313	      85.14191	       8.60468
      27.07031	      84.19437	       8.18639
      27.18750	      86.86626	       9.00589
      27.30469	      84.96265	       8.85223
      27.42188	      84.39071	       8.28883
      27.53906	      82.99074	       8.89491
      27.65625	      82.29929	       8.28029
      27.77344	      81.50541	       8.02420
      27.89063	      82.81148	       8.63882
      28.00781	      82.99074	       8.08396
      28.12500	      84.15169	       8.38273
      28.24219	      83.55414	       8.70711
      28.35938	      84.41631	       8.63882
      28.47656	      80.02007	       7.87908
      28.59375	      84.74070	       8.81809
      28.71094	      83.76755	       8.68150
      28.82813	      85.73946	       8.53639
      28.94531	      82.05173	       8.71565
      29.06250	      85.29556	       8.84370
      29.17969	      85.72238	       8.92906
      29.29688	      83.28098	       8.41688
      29.41406	      83.69072	       9.22783
      29.53125	      84.30534	       8.70711
      29.64844	      85.07362	       8.92906
      29.76563	      82.04320	       8.45956
