ALV-5000/E-WIN Data
Date :	"06.12.2013"
Time :	"11:19:17"
Samplename : 	""
SampMemo(0) : 	""
SampMemo(1) : 	""
SampMemo(2) : 	""
SampMemo(3) : 	""
SampMemo(4) : 	""
SampMemo(5) : 	""
SampMemo(6) : 	""
SampMemo(7) : 	""
SampMemo(8) : 	""
SampMemo(9) : 	""
Temperature [K] :	     298.16000
Viscosity [cp]  :	       0.89000
Refractive Index:	       1.33200
Wavelength [nm] :	     488.00000
Angle [°]       :	       0.00000
Duration [s]    :	        20
Runs            :	         6
Mode            :	"DUAL AUTO CH0"
MeanCR0 [kHz]   :	     121.68226
MeanCR1 [kHz]   :	       0.00000

"Correlation (Multi, Averaged)"
"Lag [ms]"	"Average(0)"	"Run  1"	"Run  2"	"Run  3"	"Run  4"	"Run  5"	"Run  6"	"Average(1)"	" 1,   0.000"	" 2,   0.000"	" 3,   0.000"	" 4,   0.000"	" 5,   0.000"	" 6,   0.000"	
  4.00000E-004	  3.08883E-001	  3.13192E-001	  3.07644E-001	  3.12865E-001	  3.07246E-001	  3.01657E-001	  3.10694E-001	  2.57555E-001	  2.61096E-001	  2.60729E-001	  2.54810E-001	  2.57608E-001	  2.53560E-001	  2.57524E-001	
  8.00000E-004	  2.14465E-001	  2.16411E-001	  2.12547E-001	  2.11754E-001	  2.21010E-001	  2.06823E-001	  2.18246E-001	  2.22621E-001	  2.24023E-001	  2.23612E-001	  2.21390E-001	  2.25487E-001	  2.17816E-001	  2.23402E-001	
  1.20000E-003	  1.98668E-001	  1.87001E-001	  1.97504E-001	  2.03964E-001	  2.06197E-001	  2.00823E-001	  1.96517E-001	  2.13290E-001	  2.13472E-001	  2.12108E-001	  2.13353E-001	  2.19409E-001	  2.08284E-001	  2.13112E-001	
  1.60000E-003	  1.93966E-001	  1.90091E-001	  1.93767E-001	  1.96686E-001	  1.94648E-001	  1.94686E-001	  1.93918E-001	  2.08461E-001	  2.09614E-001	  2.11976E-001	  2.08264E-001	  2.07230E-001	  2.03787E-001	  2.09897E-001	
  2.00000E-003	  1.88036E-001	  1.86510E-001	  1.84539E-001	  1.96235E-001	  1.91332E-001	  1.81939E-001	  1.87661E-001	  2.04167E-001	  2.08974E-001	  2.04580E-001	  2.02926E-001	  2.06441E-001	  1.98952E-001	  2.03130E-001	
  2.40000E-003	  1.85541E-001	  1.84969E-001	  1.86119E-001	  1.94491E-001	  1.87171E-001	  1.80136E-001	  1.80362E-001	  1.98462E-001	  1.99617E-001	  1.97560E-001	  2.03020E-001	  2.01206E-001	  1.99667E-001	  1.89704E-001	
  2.80000E-003	  1.85017E-001	  1.86671E-001	  1.84268E-001	  1.87794E-001	  1.85447E-001	  1.85578E-001	  1.80345E-001	  1.98613E-001	  2.02775E-001	  1.97177E-001	  1.96110E-001	  2.05591E-001	  1.92656E-001	  1.97368E-001	
  3.20000E-003	  1.83974E-001	  1.86163E-001	  1.79684E-001	  1.85990E-001	  1.84990E-001	  1.83347E-001	  1.83670E-001	  1.94819E-001	  1.93256E-001	  1.97810E-001	  1.99705E-001	  1.93412E-001	  1.91588E-001	  1.93147E-001	
  3.60000E-003	  1.83230E-001	  1.83039E-001	  1.80662E-001	  1.89069E-001	  1.85957E-001	  1.79081E-001	  1.81570E-001	  1.90140E-001	  1.92409E-001	  1.83527E-001	  1.89597E-001	  1.96667E-001	  1.85799E-001	  1.92840E-001	
  4.00000E-003	  1.80853E-001	  1.78476E-001	  1.80723E-001	  1.82902E-001	  1.85482E-001	  1.79827E-001	  1.77711E-001	  1.90238E-001	  1.95004E-001	  1.87423E-001	  1.90088E-001	  1.93303E-001	  1.89927E-001	  1.85679E-001	
  4.40000E-003	  1.79016E-001	  1.79051E-001	  1.75659E-001	  1.78200E-001	  1.88965E-001	  1.74188E-001	  1.78034E-001	  1.87934E-001	  1.87403E-001	  1.87041E-001	  1.89512E-001	  1.92515E-001	  1.83447E-001	  1.87684E-001	
  4.80000E-003	  1.79683E-001	  1.81794E-001	  1.73573E-001	  1.81097E-001	  1.79862E-001	  1.78531E-001	  1.83241E-001	  1.83770E-001	  1.86525E-001	  1.86478E-001	  1.79856E-001	  1.87488E-001	  1.76129E-001	  1.86143E-001	
  5.20000E-003	  1.79151E-001	  1.80084E-001	  1.78357E-001	  1.78252E-001	  1.78876E-001	  1.77844E-001	  1.81491E-001	  1.85772E-001	  1.88450E-001	  1.85479E-001	  1.83746E-001	  1.87852E-001	  1.84001E-001	  1.85106E-001	
  5.60000E-003	  1.77481E-001	  1.78933E-001	  1.73957E-001	  1.81306E-001	  1.80187E-001	  1.74754E-001	  1.75750E-001	  1.80932E-001	  1.79748E-001	  1.83363E-001	  1.81420E-001	  1.86321E-001	  1.75153E-001	  1.79588E-001	
  6.00000E-003	  1.79567E-001	  1.75022E-001	  1.83543E-001	  1.83734E-001	  1.74584E-001	  1.76531E-001	  1.83985E-001	  1.82136E-001	  1.80664E-001	  1.78326E-001	  1.85847E-001	  1.87558E-001	  1.80741E-001	  1.79682E-001	
  6.40000E-003	  1.78633E-001	  1.79233E-001	  1.78869E-001	  1.80075E-001	  1.76182E-001	  1.75334E-001	  1.82108E-001	  1.81262E-001	  1.81769E-001	  1.79897E-001	  1.80597E-001	  1.83365E-001	  1.79665E-001	  1.82277E-001	
  7.20000E-003	  1.75579E-001	  1.74907E-001	  1.72159E-001	  1.77754E-001	  1.77040E-001	  1.73960E-001	  1.77653E-001	  1.76446E-001	  1.77680E-001	  1.73989E-001	  1.77563E-001	  1.76777E-001	  1.73554E-001	  1.79114E-001	
  8.00000E-003	  1.74253E-001	  1.73552E-001	  1.72316E-001	  1.79407E-001	  1.76349E-001	  1.71663E-001	  1.72227E-001	  1.75944E-001	  1.77387E-001	  1.77382E-001	  1.74707E-001	  1.76100E-001	  1.73177E-001	  1.76913E-001	
  8.80000E-003	  1.73227E-001	  1.76413E-001	  1.69155E-001	  1.77104E-001	  1.74111E-001	  1.71114E-001	  1.71462E-001	  1.73118E-001	  1.73290E-001	  1.71954E-001	  1.71680E-001	  1.73726E-001	  1.73665E-001	  1.74393E-001	
  9.60000E-003	  1.71520E-001	  1.70335E-001	  1.71246E-001	  1.72992E-001	  1.72048E-001	  1.71303E-001	  1.71195E-001	  1.71877E-001	  1.73479E-001	  1.71588E-001	  1.68016E-001	  1.73621E-001	  1.70925E-001	  1.73631E-001	
  1.04000E-002	  1.71968E-001	  1.73492E-001	  1.74560E-001	  1.70620E-001	  1.75536E-001	  1.69269E-001	  1.68333E-001	  1.71046E-001	  1.75701E-001	  1.71697E-001	  1.68782E-001	  1.71340E-001	  1.66582E-001	  1.72173E-001	
  1.12000E-002	  1.72664E-001	  1.74809E-001	  1.67706E-001	  1.75174E-001	  1.74203E-001	  1.69144E-001	  1.74949E-001	  1.68448E-001	  1.67946E-001	  1.70932E-001	  1.66176E-001	  1.71448E-001	  1.63518E-001	  1.70667E-001	
  1.20000E-002	  1.70541E-001	  1.66491E-001	  1.73237E-001	  1.71808E-001	  1.71648E-001	  1.72136E-001	  1.67926E-001	  1.66653E-001	  1.62766E-001	  1.65739E-001	  1.69039E-001	  1.68402E-001	  1.62458E-001	  1.71516E-001	
  1.28000E-002	  1.70864E-001	  1.69024E-001	  1.71032E-001	  1.72057E-001	  1.73308E-001	  1.70184E-001	  1.69579E-001	  1.66442E-001	  1.65890E-001	  1.66210E-001	  1.65316E-001	  1.68690E-001	  1.66030E-001	  1.66519E-001	
  1.44000E-002	  1.69707E-001	  1.68635E-001	  1.69559E-001	  1.73154E-001	  1.69460E-001	  1.67302E-001	  1.70133E-001	  1.64781E-001	  1.68044E-001	  1.63196E-001	  1.64678E-001	  1.66402E-001	  1.61056E-001	  1.65309E-001	
  1.60000E-002	  1.68806E-001	  1.69648E-001	  1.67467E-001	  1.73505E-001	  1.67659E-001	  1.66388E-001	  1.68166E-001	  1.63250E-001	  1.66440E-001	  1.62572E-001	  1.61227E-001	  1.64525E-001	  1.61743E-001	  1.62993E-001	
  1.76000E-002	  1.67858E-001	  1.68373E-001	  1.64878E-001	  1.73635E-001	  1.71438E-001	  1.66504E-001	  1.62320E-001	  1.61215E-001	  1.61824E-001	  1.63694E-001	  1.60403E-001	  1.63759E-001	  1.54796E-001	  1.62816E-001	
  1.92000E-002	  1.67262E-001	  1.68012E-001	  1.66975E-001	  1.71072E-001	  1.67523E-001	  1.62985E-001	  1.67002E-001	  1.60983E-001	  1.60207E-001	  1.63015E-001	  1.59440E-001	  1.63280E-001	  1.56614E-001	  1.63344E-001	
  2.08000E-002	  1.68032E-001	  1.68226E-001	  1.66279E-001	  1.73896E-001	  1.68504E-001	  1.65234E-001	  1.66052E-001	  1.60662E-001	  1.60687E-001	  1.61234E-001	  1.61058E-001	  1.62886E-001	  1.57978E-001	  1.60129E-001	
  2.24000E-002	  1.66343E-001	  1.63822E-001	  1.64572E-001	  1.69608E-001	  1.69433E-001	  1.65037E-001	  1.65584E-001	  1.57837E-001	  1.57095E-001	  1.58178E-001	  1.56637E-001	  1.59278E-001	  1.56570E-001	  1.59262E-001	
  2.40000E-002	  1.66639E-001	  1.66506E-001	  1.65586E-001	  1.69498E-001	  1.68411E-001	  1.63284E-001	  1.66551E-001	  1.57496E-001	  1.60997E-001	  1.57397E-001	  1.55365E-001	  1.59375E-001	  1.54510E-001	  1.57331E-001	
  2.56000E-002	  1.65917E-001	  1.67088E-001	  1.65269E-001	  1.69599E-001	  1.66954E-001	  1.63879E-001	  1.62716E-001	  1.57057E-001	  1.59209E-001	  1.57375E-001	  1.57123E-001	  1.57559E-001	  1.54725E-001	  1.56352E-001	
  2.88000E-002	  1.65359E-001	  1.65912E-001	  1.64397E-001	  1.67844E-001	  1.67132E-001	  1.62222E-001	  1.64649E-001	  1.56573E-001	  1.56895E-001	  1.56098E-001	  1.55249E-001	  1.60164E-001	  1.53650E-001	  1.57384E-001	
  3.20000E-002	  1.63711E-001	  1.65966E-001	  1.60192E-001	  1.66228E-001	  1.65826E-001	  1.61151E-001	  1.62901E-001	  1.54182E-001	  1.55319E-001	  1.53505E-001	  1.54338E-001	  1.57562E-001	  1.51408E-001	  1.52960E-001	
  3.52000E-002	  1.62431E-001	  1.61249E-001	  1.62839E-001	  1.65062E-001	  1.64346E-001	  1.59494E-001	  1.61597E-001	  1.53638E-001	  1.54018E-001	  1.53614E-001	  1.51838E-001	  1.56639E-001	  1.50426E-001	  1.55295E-001	
  3.84000E-002	  1.62905E-001	  1.60288E-001	  1.62844E-001	  1.66148E-001	  1.64930E-001	  1.61167E-001	  1.62051E-001	  1.52582E-001	  1.53731E-001	  1.50680E-001	  1.52027E-001	  1.56053E-001	  1.50374E-001	  1.52625E-001	
  4.16000E-002	  1.61796E-001	  1.61302E-001	  1.61812E-001	  1.63268E-001	  1.64464E-001	  1.57850E-001	  1.62080E-001	  1.50853E-001	  1.52065E-001	  1.50841E-001	  1.50673E-001	  1.52376E-001	  1.46975E-001	  1.52187E-001	
  4.48000E-002	  1.59494E-001	  1.59021E-001	  1.59897E-001	  1.62932E-001	  1.60769E-001	  1.56851E-001	  1.57495E-001	  1.51897E-001	  1.51535E-001	  1.52682E-001	  1.52219E-001	  1.54632E-001	  1.47687E-001	  1.52625E-001	
  4.80000E-002	  1.59633E-001	  1.59066E-001	  1.58020E-001	  1.64035E-001	  1.60333E-001	  1.57272E-001	  1.59073E-001	  1.50429E-001	  1.50186E-001	  1.50583E-001	  1.49563E-001	  1.51338E-001	  1.47682E-001	  1.53219E-001	
  5.12000E-002	  1.59191E-001	  1.59740E-001	  1.56599E-001	  1.64301E-001	  1.60593E-001	  1.56275E-001	  1.57638E-001	  1.48925E-001	  1.49318E-001	  1.48838E-001	  1.48863E-001	  1.50186E-001	  1.46472E-001	  1.49870E-001	
  5.76000E-002	  1.57311E-001	  1.57443E-001	  1.56061E-001	  1.61095E-001	  1.58993E-001	  1.54723E-001	  1.55552E-001	  1.47344E-001	  1.49462E-001	  1.47524E-001	  1.45807E-001	  1.48337E-001	  1.44773E-001	  1.48158E-001	
  6.40000E-002	  1.55610E-001	  1.56698E-001	  1.54312E-001	  1.57718E-001	  1.57073E-001	  1.52781E-001	  1.55077E-001	  1.46605E-001	  1.47192E-001	  1.46133E-001	  1.46348E-001	  1.48334E-001	  1.43989E-001	  1.47634E-001	
  7.04000E-002	  1.54285E-001	  1.53829E-001	  1.53559E-001	  1.57317E-001	  1.56792E-001	  1.50861E-001	  1.53355E-001	  1.44476E-001	  1.44187E-001	  1.43907E-001	  1.45594E-001	  1.46109E-001	  1.41694E-001	  1.45368E-001	
  7.68000E-002	  1.52168E-001	  1.53001E-001	  1.50116E-001	  1.55122E-001	  1.55123E-001	  1.50463E-001	  1.49182E-001	  1.42641E-001	  1.43797E-001	  1.43373E-001	  1.42206E-001	  1.43372E-001	  1.40426E-001	  1.42674E-001	
  8.32000E-002	  1.50852E-001	  1.51032E-001	  1.49136E-001	  1.53673E-001	  1.52058E-001	  1.49309E-001	  1.49903E-001	  1.41922E-001	  1.43516E-001	  1.42939E-001	  1.39980E-001	  1.43313E-001	  1.39795E-001	  1.41991E-001	
  8.96000E-002	  1.49611E-001	  1.49925E-001	  1.48510E-001	  1.54633E-001	  1.49848E-001	  1.47796E-001	  1.46951E-001	  1.40237E-001	  1.40953E-001	  1.40699E-001	  1.39824E-001	  1.42579E-001	  1.36488E-001	  1.40878E-001	
  9.60000E-002	  1.47886E-001	  1.48595E-001	  1.46657E-001	  1.52348E-001	  1.49803E-001	  1.44386E-001	  1.45528E-001	  1.38704E-001	  1.40647E-001	  1.38303E-001	  1.38737E-001	  1.39842E-001	  1.35444E-001	  1.39249E-001	
  1.02400E-001	  1.46607E-001	  1.46131E-001	  1.44476E-001	  1.50174E-001	  1.49365E-001	  1.44175E-001	  1.45318E-001	  1.37375E-001	  1.38272E-001	  1.37067E-001	  1.38010E-001	  1.39564E-001	  1.34166E-001	  1.37170E-001	
  1.15200E-001	  1.44026E-001	  1.43224E-001	  1.42411E-001	  1.47978E-001	  1.45479E-001	  1.41955E-001	  1.43108E-001	  1.35422E-001	  1.36209E-001	  1.36447E-001	  1.35175E-001	  1.36379E-001	  1.32446E-001	  1.35874E-001	
  1.28000E-001	  1.41421E-001	  1.40700E-001	  1.40603E-001	  1.44054E-001	  1.43287E-001	  1.40312E-001	  1.39570E-001	  1.32741E-001	  1.34317E-001	  1.32641E-001	  1.31881E-001	  1.34006E-001	  1.30089E-001	  1.33511E-001	
  1.40800E-001	  1.39292E-001	  1.38495E-001	  1.38002E-001	  1.42722E-001	  1.40670E-001	  1.37044E-001	  1.38817E-001	  1.30187E-001	  1.31234E-001	  1.29794E-001	  1.30206E-001	  1.31618E-001	  1.27364E-001	  1.30904E-001	
  1.53600E-001	  1.36880E-001	  1.37607E-001	  1.34333E-001	  1.40424E-001	  1.39287E-001	  1.34657E-001	  1.34974E-001	  1.27982E-001	  1.28296E-001	  1.27251E-001	  1.27898E-001	  1.29566E-001	  1.26395E-001	  1.28488E-001	
  1.66400E-001	  1.34116E-001	  1.33882E-001	  1.32063E-001	  1.37895E-001	  1.35723E-001	  1.32907E-001	  1.32227E-001	  1.25638E-001	  1.27164E-001	  1.25057E-001	  1.25490E-001	  1.27028E-001	  1.23321E-001	  1.25767E-001	
  1.79200E-001	  1.32015E-001	  1.32072E-001	  1.29548E-001	  1.34872E-001	  1.33628E-001	  1.29821E-001	  1.32148E-001	  1.23955E-001	  1.25537E-001	  1.23840E-001	  1.23932E-001	  1.27331E-001	  1.20288E-001	  1.22802E-001	
  1.92000E-001	  1.30089E-001	  1.30377E-001	  1.28004E-001	  1.33728E-001	  1.31451E-001	  1.28204E-001	  1.28767E-001	  1.21650E-001	  1.22457E-001	  1.22284E-001	  1.21616E-001	  1.23812E-001	  1.18117E-001	  1.21615E-001	
  2.04800E-001	  1.27954E-001	  1.28377E-001	  1.25888E-001	  1.31316E-001	  1.29404E-001	  1.26080E-001	  1.26656E-001	  1.19776E-001	  1.20463E-001	  1.20341E-001	  1.19670E-001	  1.21426E-001	  1.17228E-001	  1.19529E-001	
  2.30400E-001	  1.24340E-001	  1.24694E-001	  1.23130E-001	  1.27395E-001	  1.25637E-001	  1.22463E-001	  1.22721E-001	  1.15949E-001	  1.16766E-001	  1.16284E-001	  1.15647E-001	  1.17742E-001	  1.13211E-001	  1.16041E-001	
  2.56000E-001	  1.20407E-001	  1.20843E-001	  1.19102E-001	  1.23166E-001	  1.21954E-001	  1.18415E-001	  1.18961E-001	  1.12468E-001	  1.13218E-001	  1.12614E-001	  1.11888E-001	  1.14253E-001	  1.10629E-001	  1.12206E-001	
  2.81600E-001	  1.16758E-001	  1.17174E-001	  1.15024E-001	  1.20442E-001	  1.18001E-001	  1.14222E-001	  1.15687E-001	  1.09182E-001	  1.09898E-001	  1.08918E-001	  1.09729E-001	  1.10839E-001	  1.06562E-001	  1.09144E-001	
  3.07200E-001	  1.13496E-001	  1.13755E-001	  1.12064E-001	  1.16608E-001	  1.15143E-001	  1.11414E-001	  1.11994E-001	  1.06053E-001	  1.07080E-001	  1.05879E-001	  1.06367E-001	  1.07949E-001	  1.03445E-001	  1.05597E-001	
  3.32800E-001	  1.10467E-001	  1.10727E-001	  1.08946E-001	  1.13954E-001	  1.12463E-001	  1.08312E-001	  1.08399E-001	  1.03074E-001	  1.04892E-001	  1.02661E-001	  1.02963E-001	  1.04728E-001	  1.00723E-001	  1.02476E-001	
  3.58400E-001	  1.07542E-001	  1.07866E-001	  1.06451E-001	  1.10959E-001	  1.08677E-001	  1.05330E-001	  1.05972E-001	  1.00662E-001	  1.03240E-001	  1.00261E-001	  1.00378E-001	  1.02922E-001	  9.80230E-002	  9.91480E-002	
  3.84000E-001	  1.05217E-001	  1.05898E-001	  1.03102E-001	  1.09180E-001	  1.06563E-001	  1.03420E-001	  1.03141E-001	  9.82838E-002	  1.00206E-001	  9.71348E-002	  9.82270E-002	  1.01336E-001	  9.53622E-002	  9.74379E-002	
  4.09600E-001	  1.02589E-001	  1.03150E-001	  1.00492E-001	  1.06036E-001	  1.04626E-001	  1.00182E-001	  1.01051E-001	  9.55139E-002	  9.72520E-002	  9.47956E-002	  9.55552E-002	  9.75947E-002	  9.34573E-002	  9.44282E-002	
  4.60800E-001	  9.71386E-002	  9.72760E-002	  9.58695E-002	  1.00771E-001	  9.82433E-002	  9.49420E-002	  9.57299E-002	  9.10834E-002	  9.26971E-002	  9.05479E-002	  9.12173E-002	  9.29066E-002	  8.86269E-002	  9.05049E-002	
  5.12000E-001	  9.30374E-002	  9.34638E-002	  9.15088E-002	  9.66949E-002	  9.44512E-002	  9.12482E-002	  9.08573E-002	  8.67138E-002	  8.83462E-002	  8.67705E-002	  8.67329E-002	  8.85804E-002	  8.42816E-002	  8.55713E-002	
  5.63200E-001	  8.86534E-002	  8.95915E-002	  8.67862E-002	  9.20781E-002	  9.00285E-002	  8.68011E-002	  8.66351E-002	  8.28374E-002	  8.44283E-002	  8.31505E-002	  8.27770E-002	  8.42760E-002	  8.05919E-002	  8.18007E-002	
  6.14400E-001	  8.49773E-002	  8.48245E-002	  8.36672E-002	  8.79429E-002	  8.67046E-002	  8.34568E-002	  8.32675E-002	  7.93474E-002	  8.09200E-002	  7.88905E-002	  7.88004E-002	  8.20262E-002	  7.72256E-002	  7.82217E-002	
  6.65600E-001	  8.10741E-002	  8.13636E-002	  7.89844E-002	  8.40247E-002	  8.29548E-002	  7.99466E-002	  7.91704E-002	  7.61140E-002	  7.74574E-002	  7.58025E-002	  7.58740E-002	  7.83145E-002	  7.41502E-002	  7.50853E-002	
  7.16800E-001	  7.79860E-002	  7.84613E-002	  7.61049E-002	  8.12891E-002	  7.98851E-002	  7.60212E-002	  7.61543E-002	  7.29246E-002	  7.45371E-002	  7.35251E-002	  7.22107E-002	  7.48718E-002	  7.09192E-002	  7.14838E-002	
  7.68000E-001	  7.50795E-002	  7.53298E-002	  7.34413E-002	  7.80700E-002	  7.65288E-002	  7.39623E-002	  7.31449E-002	  7.02296E-002	  7.12125E-002	  7.08264E-002	  6.94053E-002	  7.25624E-002	  6.80896E-002	  6.92815E-002	
  8.19200E-001	  7.20142E-002	  7.22482E-002	  7.05994E-002	  7.50037E-002	  7.35710E-002	  7.05807E-002	  7.00818E-002	  6.76696E-002	  6.86509E-002	  6.79499E-002	  6.71745E-002	  6.99996E-002	  6.57204E-002	  6.65225E-002	
  9.21600E-001	  6.69657E-002	  6.72088E-002	  6.56902E-002	  6.94731E-002	  6.89761E-002	  6.56725E-002	  6.47734E-002	  6.29335E-002	  6.41817E-002	  6.32767E-002	  6.23645E-002	  6.54202E-002	  6.04989E-002	  6.18589E-002	
  1.02400E+000	  6.24300E-002	  6.30953E-002	  6.17540E-002	  6.51569E-002	  6.34671E-002	  6.09591E-002	  6.01474E-002	  5.87262E-002	  5.97504E-002	  5.93178E-002	  5.86674E-002	  6.08517E-002	  5.58763E-002	  5.78937E-002	
  1.12640E+000	  5.88893E-002	  5.93921E-002	  5.78602E-002	  6.16255E-002	  6.00038E-002	  5.76452E-002	  5.68089E-002	  5.49319E-002	  5.61013E-002	  5.54612E-002	  5.48558E-002	  5.69412E-002	  5.20689E-002	  5.41632E-002	
  1.22880E+000	  5.53175E-002	  5.64816E-002	  5.39875E-002	  5.77045E-002	  5.61644E-002	  5.42202E-002	  5.33466E-002	  5.15410E-002	  5.26224E-002	  5.24752E-002	  5.14766E-002	  5.34309E-002	  4.87563E-002	  5.04848E-002	
  1.33120E+000	  5.20917E-002	  5.30503E-002	  5.09163E-002	  5.41462E-002	  5.33197E-002	  5.10353E-002	  5.00822E-002	  4.85959E-002	  4.96060E-002	  4.91405E-002	  4.87216E-002	  5.05815E-002	  4.60800E-002	  4.74457E-002	
  1.43360E+000	  4.91102E-002	  5.04836E-002	  4.77542E-002	  5.18154E-002	  5.01337E-002	  4.76172E-002	  4.68572E-002	  4.62208E-002	  4.75170E-002	  4.67519E-002	  4.59544E-002	  4.80103E-002	  4.38710E-002	  4.52199E-002	
  1.53600E+000	  4.66935E-002	  4.84949E-002	  4.55461E-002	  4.90582E-002	  4.75968E-002	  4.49445E-002	  4.45206E-002	  4.39410E-002	  4.52124E-002	  4.43771E-002	  4.38001E-002	  4.58596E-002	  4.17418E-002	  4.26552E-002	
  1.63840E+000	  4.43459E-002	  4.60473E-002	  4.31900E-002	  4.66458E-002	  4.51666E-002	  4.27692E-002	  4.22564E-002	  4.18099E-002	  4.33884E-002	  4.19243E-002	  4.14753E-002	  4.35648E-002	  3.97618E-002	  4.07447E-002	
  1.84320E+000	  4.02846E-002	  4.17773E-002	  3.92090E-002	  4.27928E-002	  4.03916E-002	  3.86923E-002	  3.88446E-002	  3.77736E-002	  3.93639E-002	  3.71958E-002	  3.76896E-002	  3.91562E-002	  3.60809E-002	  3.71552E-002	
  2.04800E+000	  3.67596E-002	  3.79005E-002	  3.56866E-002	  3.93207E-002	  3.65239E-002	  3.53280E-002	  3.57977E-002	  3.44351E-002	  3.59528E-002	  3.34666E-002	  3.47151E-002	  3.53591E-002	  3.28212E-002	  3.42959E-002	
  2.25280E+000	  3.40196E-002	  3.49032E-002	  3.30410E-002	  3.63644E-002	  3.34423E-002	  3.29963E-002	  3.33703E-002	  3.16510E-002	  3.28103E-002	  3.06369E-002	  3.23499E-002	  3.27083E-002	  2.99269E-002	  3.14735E-002	
  2.45760E+000	  3.13924E-002	  3.19177E-002	  3.04999E-002	  3.35356E-002	  3.06864E-002	  3.03732E-002	  3.13415E-002	  2.92378E-002	  3.00974E-002	  2.80296E-002	  3.02922E-002	  3.03486E-002	  2.76097E-002	  2.90495E-002	
  2.66240E+000	  2.92521E-002	  3.01179E-002	  2.85861E-002	  3.04675E-002	  2.86871E-002	  2.80016E-002	  2.96522E-002	  2.72521E-002	  2.82472E-002	  2.58232E-002	  2.81304E-002	  2.78381E-002	  2.61055E-002	  2.73679E-002	
  2.86720E+000	  2.75440E-002	  2.76003E-002	  2.67851E-002	  2.94216E-002	  2.71828E-002	  2.63963E-002	  2.78780E-002	  2.55984E-002	  2.59680E-002	  2.40432E-002	  2.72795E-002	  2.53188E-002	  2.49241E-002	  2.60570E-002	
  3.07200E+000	  2.55124E-002	  2.53359E-002	  2.46746E-002	  2.74461E-002	  2.46297E-002	  2.48985E-002	  2.60899E-002	  2.43410E-002	  2.49588E-002	  2.26738E-002	  2.59341E-002	  2.33347E-002	  2.40957E-002	  2.50490E-002	
  3.27680E+000	  2.41963E-002	  2.38662E-002	  2.37858E-002	  2.60406E-002	  2.32895E-002	  2.37411E-002	  2.44544E-002	  2.27085E-002	  2.29660E-002	  2.13315E-002	  2.38844E-002	  2.16299E-002	  2.25369E-002	  2.39025E-002	
  3.68640E+000	  2.17800E-002	  2.16999E-002	  2.20933E-002	  2.26875E-002	  2.08048E-002	  2.16467E-002	  2.17480E-002	  2.02017E-002	  1.99320E-002	  1.94944E-002	  2.07524E-002	  1.88619E-002	  1.98886E-002	  2.22808E-002	
  4.09600E+000	  1.95645E-002	  1.89835E-002	  2.00737E-002	  2.03436E-002	  1.84088E-002	  2.06413E-002	  1.89360E-002	  1.81332E-002	  1.83267E-002	  1.76626E-002	  1.86325E-002	  1.69744E-002	  1.75949E-002	  1.96083E-002	
  4.50560E+000	  1.78438E-002	  1.73076E-002	  1.88366E-002	  1.89930E-002	  1.64989E-002	  1.84132E-002	  1.70134E-002	  1.67106E-002	  1.74846E-002	  1.54920E-002	  1.76221E-002	  1.54515E-002	  1.59929E-002	  1.82203E-002	
  4.91520E+000	  1.65393E-002	  1.58875E-002	  1.77887E-002	  1.76132E-002	  1.53748E-002	  1.69190E-002	  1.56524E-002	  1.54802E-002	  1.68368E-002	  1.43739E-002	  1.64659E-002	  1.47126E-002	  1.44581E-002	  1.60341E-002	
  5.32480E+000	  1.51726E-002	  1.42823E-002	  1.63264E-002	  1.60832E-002	  1.46062E-002	  1.54890E-002	  1.42482E-002	  1.44455E-002	  1.53866E-002	  1.38226E-002	  1.53712E-002	  1.35662E-002	  1.35336E-002	  1.49930E-002	
  5.73440E+000	  1.40330E-002	  1.31887E-002	  1.54615E-002	  1.53579E-002	  1.39570E-002	  1.37397E-002	  1.24932E-002	  1.32212E-002	  1.42915E-002	  1.24283E-002	  1.40036E-002	  1.25845E-002	  1.27137E-002	  1.33054E-002	
  6.14400E+000	  1.29949E-002	  1.24690E-002	  1.44996E-002	  1.40889E-002	  1.24796E-002	  1.28585E-002	  1.15740E-002	  1.22125E-002	  1.31091E-002	  1.13759E-002	  1.29417E-002	  1.13742E-002	  1.20103E-002	  1.24641E-002	
  6.45120E+000	  1.24078E-002	  1.16248E-002	  1.36397E-002	  1.40091E-002	  1.22311E-002	  1.21428E-002	  1.07991E-002	  1.15355E-002	  1.22812E-002	  1.07409E-002	  1.20498E-002	  1.08576E-002	  1.13495E-002	  1.19338E-002	
  7.27040E+000	  1.07601E-002	  1.04864E-002	  1.13125E-002	  1.18553E-002	  1.04436E-002	  1.12716E-002	  9.19114E-003	  1.00670E-002	  1.02515E-002	  9.68892E-003	  9.96190E-003	  9.13137E-003	  1.05152E-002	  1.08534E-002	
  8.08960E+000	  9.56937E-003	  9.80692E-003	  9.57871E-003	  1.02619E-002	  9.31708E-003	  9.94169E-003	  8.50991E-003	  8.72692E-003	  8.96222E-003	  8.12850E-003	  9.59118E-003	  7.03409E-003	  9.53964E-003	  9.10591E-003	
  8.90880E+000	  8.57623E-003	  7.87446E-003	  8.74215E-003	  9.27554E-003	  8.29934E-003	  8.56710E-003	  8.69880E-003	  7.70430E-003	  7.34755E-003	  7.77116E-003	  8.87454E-003	  6.27128E-003	  8.02989E-003	  7.93136E-003	
  9.72800E+000	  7.80545E-003	  6.78841E-003	  7.46400E-003	  8.15227E-003	  8.54970E-003	  8.03679E-003	  7.84154E-003	  6.99774E-003	  7.04321E-003	  6.21309E-003	  8.16722E-003	  6.11205E-003	  7.31863E-003	  7.13223E-003	
  1.05472E+001	  6.76346E-003	  5.52802E-003	  5.87513E-003	  7.00572E-003	  8.07875E-003	  7.10971E-003	  6.98342E-003	  6.51425E-003	  7.29669E-003	  5.51650E-003	  7.87307E-003	  5.87454E-003	  5.57739E-003	  6.94729E-003	
  1.13664E+001	  6.17092E-003	  5.00553E-003	  5.60774E-003	  7.13907E-003	  6.67083E-003	  6.43297E-003	  6.16938E-003	  6.17386E-003	  7.15081E-003	  6.14227E-003	  7.65586E-003	  4.81606E-003	  4.78213E-003	  6.49603E-003	
  1.21856E+001	  5.49918E-003	  4.41385E-003	  4.48359E-003	  6.19902E-003	  5.82410E-003	  6.27462E-003	  5.79992E-003	  5.30741E-003	  6.32711E-003	  5.20393E-003	  6.59772E-003	  3.69137E-003	  4.24855E-003	  5.77580E-003	
  1.30048E+001	  5.28570E-003	  4.30913E-003	  4.75910E-003	  5.85777E-003	  5.11933E-003	  5.56420E-003	  6.10469E-003	  5.15154E-003	  6.37079E-003	  5.50006E-003	  6.35334E-003	  3.77140E-003	  3.66705E-003	  5.24659E-003	
  1.46432E+001	  4.92902E-003	  3.31461E-003	  4.73716E-003	  5.87435E-003	  5.48291E-003	  4.60920E-003	  5.55591E-003	  4.48776E-003	  5.28692E-003	  5.50770E-003	  5.48423E-003	  4.03702E-003	  2.98103E-003	  3.62963E-003	
  1.62816E+001	  4.31411E-003	  3.58356E-003	  3.95314E-003	  3.86897E-003	  4.27435E-003	  5.35787E-003	  4.84676E-003	  3.94190E-003	  4.44570E-003	  3.79164E-003	  4.80455E-003	  3.22055E-003	  4.34334E-003	  3.04562E-003	
  1.79200E+001	  3.22312E-003	  2.74410E-003	  2.48047E-003	  2.63072E-003	  3.18432E-003	  4.72563E-003	  3.57349E-003	  3.76697E-003	  4.00569E-003	  2.77369E-003	  4.99079E-003	  2.65552E-003	  4.42850E-003	  3.74767E-003	
  1.95584E+001	  2.63915E-003	  2.07041E-003	  3.40967E-003	  2.61687E-003	  1.85652E-003	  3.35524E-003	  2.52618E-003	  3.51382E-003	  3.19754E-003	  2.48600E-003	  4.66644E-003	  2.63444E-003	  4.14854E-003	  3.94998E-003	
  2.11968E+001	  2.88632E-003	  2.85330E-003	  3.65732E-003	  3.03016E-003	  1.83711E-003	  4.76085E-003	  1.17916E-003	  2.91702E-003	  3.27568E-003	  2.65688E-003	  2.73814E-003	  2.17920E-003	  4.40978E-003	  2.24247E-003	
  2.28352E+001	  2.48574E-003	  2.65592E-003	  2.68613E-003	  1.55257E-003	  2.17609E-003	  4.96218E-003	  8.81555E-004	  2.76267E-003	  3.59200E-003	  2.40658E-003	  1.66475E-003	  2.63459E-003	  4.02877E-003	  2.24935E-003	
  2.44736E+001	  2.40379E-003	  3.50143E-003	  1.76435E-003	  1.27950E-003	  3.01334E-003	  3.88523E-003	  9.78892E-004	  2.87554E-003	  2.90137E-003	  2.25756E-003	  2.53612E-003	  3.21520E-003	  3.25882E-003	  3.08415E-003	
  2.61120E+001	  2.23772E-003	  2.39137E-003	  1.91268E-003	  1.09186E-003	  3.31007E-003	  3.26964E-003	  1.45070E-003	  2.43526E-003	  1.89530E-003	  1.97536E-003	  3.04368E-003	  1.75191E-003	  2.90465E-003	  3.04067E-003	
  2.93888E+001	  1.97987E-003	  1.06394E-003	  3.25868E-004	  2.90137E-003	  3.34920E-003	  3.12132E-003	  1.11749E-003	  2.40192E-003	  1.63032E-003	  1.93885E-003	  3.34557E-003	  1.36857E-003	  3.51760E-003	  2.61060E-003	
  3.26656E+001	  2.19949E-003	  4.33591E-004	  1.39044E-003	  3.15535E-003	  2.36002E-003	  3.62581E-003	  2.23175E-003	  2.10798E-003	  1.54667E-003	  1.55937E-003	  2.89884E-003	  1.82114E-003	  2.69599E-003	  2.12585E-003	
  3.59424E+001	  1.56176E-003	  8.53529E-004	  1.42159E-003	  1.67669E-003	  1.97831E-003	  2.64618E-003	  7.94280E-004	  1.73943E-003	  5.58114E-004	  3.74261E-004	  3.29434E-003	  2.15990E-003	  3.16631E-003	  8.83643E-004	
  3.92192E+001	  1.28293E-003	  4.25592E-004	  4.20228E-004	  2.98587E-003	  1.25497E-003	  1.45217E-003	  1.15874E-003	  1.74720E-003	  2.14732E-003	  1.20884E-004	  3.18555E-003	  1.74196E-003	  1.75315E-003	  1.53432E-003	
  4.24960E+001	  9.25649E-004	 -4.38188E-004	  7.48266E-004	  2.46876E-003	  6.45225E-004	  4.08087E-004	  1.72175E-003	  1.51927E-003	  2.64098E-003	  5.42838E-005	  2.17359E-003	  1.36954E-003	  1.49954E-003	  1.37767E-003	
  4.57728E+001	  3.08873E-004	 -5.22482E-004	 -3.89427E-004	  3.12529E-004	 -3.51212E-004	  1.62871E-003	  1.17512E-003	  1.01865E-003	  1.13561E-003	 -3.93168E-004	  2.51179E-003	  1.06322E-003	  9.64612E-004	  8.29816E-004	
  4.90496E+001	  8.68407E-004	 -7.01475E-004	 -2.22552E-004	  1.79803E-003	  1.55679E-003	  1.49775E-003	  1.28189E-003	  8.99124E-004	  3.10288E-004	 -1.14344E-003	  4.21089E-003	  8.19010E-004	  1.25549E-003	 -5.74881E-005	
  5.23264E+001	  6.40912E-004	 -1.43262E-003	  1.87170E-004	  1.01146E-003	  7.53269E-004	  1.49586E-003	  1.83033E-003	  8.81597E-004	 -2.13345E-004	 -7.77721E-004	  3.30840E-003	  1.08773E-003	  1.53973E-003	  3.44788E-004	
  5.88800E+001	  3.06914E-004	 -2.82252E-003	  8.07870E-004	  5.89694E-004	  6.98210E-004	  1.46403E-003	  1.10420E-003	  4.52719E-004	 -9.40080E-004	 -8.07394E-005	  1.94932E-003	 -3.08445E-004	  2.23647E-003	 -1.40207E-004	
  6.54336E+001	  9.79404E-004	 -1.09075E-003	 -3.87542E-004	  2.56917E-003	  1.13610E-003	  1.56873E-003	  2.08072E-003	  7.30630E-004	  8.62734E-004	 -1.80487E-003	  3.05588E-003	 -3.20805E-005	  2.01074E-003	  2.91375E-004	
  7.19872E+001	  7.78457E-004	 -6.63513E-004	  5.05276E-004	  1.72488E-003	  5.54515E-004	  1.82077E-003	  7.28813E-004	  6.80392E-004	  1.43377E-003	 -2.80026E-004	  1.25162E-003	  2.92569E-004	  1.80724E-003	 -4.22826E-004	
  7.85408E+001	  3.87068E-004	 -4.22851E-005	  8.86490E-004	  2.62209E-004	 -4.94781E-005	 -7.66917E-004	  2.03239E-003	  7.73452E-004	  1.01916E-003	  1.23490E-003	  3.19836E-004	 -8.94271E-004	  2.22802E-003	  7.33068E-004	
  8.50944E+001	  6.12321E-004	  1.76868E-003	  1.13564E-003	  1.22602E-003	 -6.96144E-004	 -1.77526E-003	  2.01499E-003	  9.46639E-004	  2.38038E-003	  5.27908E-004	  1.68089E-003	 -1.54395E-003	  2.02755E-003	  6.07049E-004	
  9.16480E+001	  1.28264E-003	  1.92607E-003	  1.83654E-003	  2.41589E-003	 -1.47767E-003	  1.63475E-003	  1.36024E-003	  4.76422E-004	  1.35928E-003	 -1.91581E-004	  2.09350E-003	 -1.81646E-003	  1.83470E-003	 -4.20899E-004	
  9.82016E+001	  4.05308E-004	  2.04339E-004	  1.08410E-003	  1.36077E-003	 -3.55435E-004	  7.09482E-004	 -5.71410E-004	  2.32422E-004	  1.30339E-003	  1.34256E-004	  3.62951E-004	 -5.38402E-004	  1.38831E-003	 -1.25597E-003	
  1.04755E+002	  3.21197E-004	 -3.92596E-004	  1.16640E-003	 -8.29054E-004	 -4.08179E-005	  1.43733E-003	  5.85911E-004	 -1.52006E-004	  6.97095E-004	 -1.01512E-003	 -9.74785E-004	 -1.17125E-003	  2.31588E-003	 -7.63856E-004	
  1.17862E+002	  4.63665E-004	  1.54327E-003	  1.44795E-003	 -1.78718E-003	 -5.49806E-004	  1.38415E-003	  7.43601E-004	  4.66819E-004	  6.39939E-004	  8.26982E-004	  1.10165E-004	 -1.21389E-003	  2.04546E-003	  3.92249E-004	
  1.30970E+002	  3.48070E-004	  6.48601E-004	 -1.51418E-004	  2.69673E-004	  6.70848E-005	  8.43961E-004	  4.10521E-004	  1.11408E-003	  7.17044E-004	  6.64129E-004	  2.46837E-003	  3.27883E-004	  2.76662E-003	 -2.59543E-004	
  1.44077E+002	  5.02721E-004	  4.03254E-005	 -4.47096E-004	  1.64336E-003	 -7.74992E-005	  1.86394E-003	 -6.70016E-006	  2.72252E-004	  7.32425E-004	  1.38935E-004	  4.50142E-004	 -1.72092E-004	  2.15330E-003	 -1.66920E-003	
  1.57184E+002	  4.86945E-004	  1.29721E-003	 -1.47529E-003	  6.30700E-004	  9.97222E-004	  1.98153E-003	 -5.09709E-004	  5.86429E-004	  1.38880E-003	 -3.62865E-004	  8.39919E-004	 -2.85362E-004	  2.65154E-003	 -7.13452E-004	
  1.70291E+002	  3.49992E-004	  1.37495E-004	  5.80910E-004	  1.26898E-003	 -4.60572E-004	  2.39505E-004	  3.33632E-004	  7.21711E-004	  1.72896E-005	  3.37153E-004	  1.89110E-003	 -1.34023E-004	  2.26065E-003	 -4.19000E-005	
  1.83398E+002	  4.21373E-004	  3.80962E-004	  4.12257E-004	 -4.57616E-005	  8.24553E-004	  5.44966E-004	  4.11263E-004	  7.68076E-004	  3.03141E-004	 -1.39792E-004	 -1.29227E-004	  1.72251E-003	  2.06329E-003	  7.88534E-004	
  1.96506E+002	  7.37985E-004	  4.25383E-004	  1.56015E-003	  3.88335E-005	  3.83913E-004	  1.39582E-003	  6.23807E-004	  2.76646E-004	  6.11261E-004	  5.02593E-004	  1.44915E-004	  7.78471E-004	 -2.55373E-004	 -1.21989E-004	
  2.09613E+002	  1.14027E-003	  1.65103E-003	  8.66046E-004	  1.35029E-003	  2.01575E-004	  1.44589E-003	  1.32679E-003	  4.45195E-004	  4.85244E-004	  2.45701E-004	  1.97338E-004	  6.65300E-004	  5.87336E-004	  4.90253E-004	
  2.35827E+002	  3.52858E-004	  1.19445E-003	  4.73315E-004	  1.31556E-005	  5.99691E-004	  5.65677E-004	 -7.29136E-004	  1.03157E-004	 -2.36634E-004	  1.30165E-004	 -1.42212E-004	  9.28300E-004	  1.14871E-003	 -1.20939E-003	
  2.62042E+002	  1.05964E-004	  1.23501E-003	 -1.25243E-004	 -2.91682E-004	 -1.79620E-004	  1.03240E-004	 -1.05925E-004	  4.26361E-004	  8.66746E-004	 -4.09212E-004	  1.48585E-003	  2.47854E-004	  4.07656E-004	 -4.07273E-005	
  2.88256E+002	  2.54610E-004	 -8.89187E-004	  6.91070E-004	  7.49642E-004	  6.48609E-004	 -1.18245E-004	  4.45772E-004	  4.97180E-004	  5.61470E-004	  2.06504E-004	  1.55628E-003	 -8.11459E-004	  1.07720E-003	  3.93080E-004	
  3.14470E+002	  8.52746E-005	 -6.12429E-005	  1.26637E-003	  4.40522E-004	 -1.63657E-003	 -7.85472E-005	  5.81121E-004	  7.24768E-004	  1.68331E-003	  8.12629E-004	  7.26503E-004	 -1.41674E-004	  1.65442E-003	 -3.86572E-004	
  3.40685E+002	  4.05215E-004	  2.17154E-003	  7.27952E-004	  1.41505E-004	 -1.21812E-003	  1.48617E-003	 -8.77760E-004	  3.65063E-004	  8.68741E-004	  5.65118E-004	  1.11048E-003	 -6.95951E-004	  1.44979E-003	 -1.10780E-003	
  3.66899E+002	  3.62367E-004	  6.99579E-004	  9.74729E-004	  7.03105E-004	 -7.31107E-005	  1.24782E-004	 -2.54880E-004	  4.03262E-004	 -1.10040E-003	  8.30452E-006	  1.01520E-003	  1.43056E-003	  8.64299E-004	  2.01610E-004	
  3.93114E+002	 -4.95865E-004	 -3.16358E-004	  8.85657E-004	 -8.32626E-004	 -1.06089E-003	 -8.12165E-006	 -1.64286E-003	  2.97497E-004	 -2.70769E-004	 -5.75387E-004	 -1.56788E-004	  6.73814E-004	  1.56782E-003	  5.46292E-004	
  4.19328E+002	 -5.29573E-004	  3.39229E-005	 -5.89396E-005	 -2.24834E-004	 -1.65875E-003	 -1.94737E-005	 -1.24936E-003	 -4.38125E-005	  6.53445E-004	 -7.40068E-004	  9.26739E-005	 -2.82784E-004	  6.02946E-004	 -5.89088E-004	
  4.71757E+002	 -3.15275E-004	 -1.49626E-003	  1.22011E-003	  6.61269E-004	 -1.65287E-003	 -1.42797E-004	 -4.81111E-004	  1.50173E-004	  7.29624E-004	  8.87873E-004	  1.07515E-004	 -3.72903E-004	  3.21520E-004	 -7.72591E-004	
  5.24186E+002	  5.85713E-005	  1.24244E-004	 -9.31717E-005	  2.91574E-004	 -1.28037E-003	  9.98259E-004	  3.10888E-004	  1.72259E-005	  1.17077E-004	 -1.88859E-004	  4.12268E-004	 -1.57166E-003	  5.27758E-004	  8.06776E-004	
  5.76614E+002	  2.69709E-004	  1.21530E-003	  7.41704E-004	  7.15653E-004	 -1.05435E-003	  4.54064E-004	 -4.54115E-004	  1.79274E-004	  6.00612E-004	 -1.24563E-004	  1.33210E-003	 -1.41011E-003	  4.62304E-004	  2.15298E-004	
  6.29043E+002	  2.03531E-005	 -9.98725E-004	  8.36286E-004	 -6.40560E-004	  1.00091E-003	 -1.09326E-004	  3.35337E-005	  1.79577E-004	  5.27235E-004	  5.34170E-004	 -2.51800E-004	  3.79439E-004	  6.53043E-004	 -7.64625E-004	
  6.81472E+002	 -2.10248E-004	  2.79131E-004	  1.94347E-005	 -2.16850E-003	 -3.07731E-005	  3.88291E-004	  2.50926E-004	 -1.39339E-004	  9.99660E-004	 -1.19375E-003	 -8.99307E-004	 -3.55816E-004	  9.44596E-004	 -3.31411E-004	
  7.33901E+002	  3.54248E-005	  1.92489E-004	  2.75911E-005	  3.48001E-005	  1.32320E-004	 -7.71368E-004	  5.96717E-004	  3.44026E-004	  1.52581E-003	 -5.14505E-005	  5.82457E-004	 -4.41375E-004	  2.82286E-004	  1.66424E-004	
  7.86330E+002	 -3.13831E-004	  2.59464E-004	 -7.54330E-004	  1.08815E-004	 -6.11200E-004	 -9.05307E-004	  1.95735E-005	  4.13967E-004	  1.88067E-003	 -4.15692E-004	  5.10085E-004	 -5.60821E-004	  7.23218E-004	  3.46346E-004	
  8.38758E+002	  2.58457E-004	  1.82418E-004	 -1.99926E-004	  6.89294E-004	  7.44745E-004	  2.68305E-004	 -1.34094E-004	  2.98421E-004	  8.33935E-004	  1.98854E-005	  6.77912E-004	 -2.75983E-004	  4.20982E-004	  1.13794E-004	
  9.43616E+002	  3.76688E-004	  7.46377E-004	  7.05261E-004	 -6.53044E-004	  1.11383E-003	 -3.92350E-004	  7.40050E-004	  2.21736E-004	  3.14388E-004	  7.29098E-004	 -3.11884E-004	  6.76769E-004	 -4.62764E-005	 -3.16819E-005	
  1.04847E+003	  1.99859E-004	  7.52488E-004	 -2.42151E-004	 -3.74640E-005	  8.41443E-004	  2.98190E-004	 -4.13349E-004	 -1.20348E-004	  9.71915E-004	 -8.26471E-004	 -3.87582E-004	 -2.49803E-004	  2.40869E-004	 -4.71013E-004	
  1.15333E+003	 -5.10585E-005	  4.57400E-004	 -1.78171E-004	  1.88828E-004	  4.90497E-004	  2.40557E-004	 -1.50546E-003	 -1.12952E-004	  2.70676E-004	 -1.85263E-004	 -5.08554E-004	  1.91320E-004	  1.34772E-004	 -5.80665E-004	
  1.25819E+003	  2.36214E-005	  5.14556E-004	  5.64642E-004	 -4.10306E-004	  1.24727E-004	  4.94474E-005	 -7.01338E-004	 -2.44709E-004	 -8.80547E-004	 -5.09174E-005	 -1.06985E-003	 -9.76567E-005	  2.16433E-004	  4.14285E-004	
  1.36305E+003	  5.31082E-005	  2.34517E-004	  5.26758E-005	  3.04804E-004	 -2.22115E-004	  5.20380E-004	 -5.71612E-004	  8.78047E-006	  8.05648E-004	 -3.95763E-004	  1.25211E-004	  3.38233E-004	  1.87266E-004	 -1.00791E-003	
  1.46790E+003	 -2.00832E-004	 -1.32023E-004	  2.96696E-004	 -7.67666E-005	 -8.27245E-004	 -7.65518E-004	  2.99862E-004	  4.78356E-005	  4.72799E-004	  4.97980E-004	 -6.00114E-004	 -6.77603E-004	  7.50225E-004	 -1.56274E-004	
  1.57276E+003	 -2.69988E-004	 -1.16209E-004	 -9.70952E-005	 -6.93679E-004	 -5.30368E-004	 -4.78923E-004	  2.96345E-004	  1.07802E-005	  3.93157E-004	 -8.57982E-005	 -3.63582E-004	  2.94258E-004	 -2.22209E-004	  4.88557E-005	
  1.67762E+003	 -1.96319E-004	 -8.41163E-004	 -5.87468E-005	 -1.98447E-004	 -6.07979E-004	  4.37334E-004	  9.10852E-005	 -1.16939E-004	 -9.71956E-005	 -2.76493E-004	  1.17845E-004	 -5.84347E-004	 -1.99309E-004	  3.37866E-004	
  1.88733E+003	  7.16202E-005	 -1.67844E-004	  1.56619E-004	 -3.19383E-004	  1.66720E-004	  6.70211E-004	 -7.66011E-005	 -3.91389E-005	 -4.11174E-004	  4.05404E-004	  1.06709E-004	  1.38774E-005	  6.52140E-005	 -4.14863E-004	
  2.09705E+003	  1.54528E-004	  3.82215E-004	  4.99624E-004	  1.43363E-006	  3.43360E-004	  2.19647E-004	 -5.19109E-004	  2.05065E-004	  1.54965E-004	  4.17524E-004	  3.04016E-004	  1.77519E-004	  3.74286E-005	  1.38936E-004	
  2.30676E+003	 -4.30330E-005	  2.26818E-004	  2.35422E-004	 -3.41076E-004	 -5.03517E-004	  3.12663E-004	 -1.88507E-004	  9.28846E-005	 -9.89825E-005	 -1.90238E-004	  6.97126E-004	  2.21688E-004	 -1.10846E-004	  3.85591E-005	
  2.51648E+003	 -6.49114E-005	 -1.58284E-004	 -3.19452E-004	  3.80170E-004	 -4.07938E-004	  6.63651E-005	  4.96696E-005	 -1.43998E-004	 -3.97847E-004	 -4.35154E-004	 -2.36959E-004	 -1.12654E-004	  2.03876E-004	  1.14749E-004	
  2.72620E+003	  1.51611E-005	 -1.28089E-004	  4.89539E-004	  1.56857E-004	  8.53638E-005	 -6.01230E-004	  8.85260E-005	 -6.55261E-005	 -8.02043E-005	  4.84648E-005	  2.14541E-005	  1.63661E-005	 -3.81300E-004	 -1.79367E-005	
  2.93591E+003	 -3.23442E-007	 -3.46662E-004	  3.45754E-004	  3.11085E-005	 -4.19150E-004	  6.98025E-004	 -3.11016E-004	 -1.98454E-004	 -4.83302E-004	  1.73083E-004	  9.72041E-005	 -4.44660E-006	 -8.12871E-004	 -1.60393E-004	
  3.14563E+003	 -9.83874E-005	  1.54391E-004	 -4.66515E-004	 -2.69202E-004	 -1.24810E-004	  1.86448E-004	 -7.06364E-005	 -2.40961E-004	  4.47272E-004	 -8.46689E-005	 -7.93933E-004	 -2.52027E-004	 -8.96132E-004	  1.33721E-004	
  3.35534E+003	 -1.23210E-004	 -3.81698E-004	 -2.24384E-004	  2.92411E-004	  1.06582E-004	 -8.96016E-004	  3.63844E-004	 -4.21881E-004	 -6.10577E-004	 -2.09804E-004	 -9.48099E-004	 -7.40297E-005	 -7.77763E-004	  8.89855E-005	
  3.77477E+003	 -5.77828E-004	 -4.49462E-004	 -5.70148E-004	  4.90235E-005	 -4.89950E-004	 -1.94472E-003	 -6.17162E-005	 -2.86345E-004	 -4.74970E-004	  1.49632E-004	 -2.08415E-004	 -5.42481E-004	 -7.53370E-004	  1.11531E-004	
  4.19420E+003	 -1.70647E-004	 -7.87056E-004	  1.64490E-004	  3.92524E-004	 -4.43315E-005	 -6.01994E-004	 -1.47513E-004	 -3.01792E-004	 -9.52656E-004	 -2.05770E-004	  1.13834E-004	  2.88839E-004	 -9.24511E-004	 -1.30490E-004	
  4.61363E+003	 -3.11420E-004	  1.31456E-004	 -3.79984E-004	 -2.74624E-004	 -1.79223E-004	 -6.64039E-004	 -5.02109E-004	 -2.64634E-004	 -5.79400E-004	 -2.60784E-004	  3.93551E-004	 -1.02256E-004	 -5.54996E-004	 -4.83921E-004	
  5.03306E+003	 -5.95603E-005	 -2.85903E-005	 -1.38669E-005	 -5.03880E-005	 -2.46848E-004	  1.68819E-004	 -1.86488E-004	 -2.15552E-006	 -3.87029E-004	 -1.86966E-005	  2.87181E-005	  1.27423E-004	  4.26543E-004	 -1.89891E-004	
  5.45249E+003	 -3.66318E-005	  1.61649E-004	  4.31554E-004	 -5.72130E-004	  3.14282E-004	 -2.62586E-004	 -2.92560E-004	 -3.55075E-005	  1.68238E-004	  4.01754E-004	 -8.39528E-004	 -1.02305E-006	 -2.08388E-004	  2.65902E-004	
  5.87192E+003	  2.00484E-006	  7.96186E-004	 -1.10116E-004	 -3.37272E-005	 -1.03213E-004	 -8.25909E-004	  2.88809E-004	 -1.68262E-004	  1.37876E-004	 -3.55594E-004	 -7.13539E-004	  3.34891E-005	 -1.93540E-004	  8.17357E-005	
  6.29135E+003	  1.08024E-004	  1.10766E-004	 -1.50041E-004	  1.94024E-005	  6.37956E-004	 -3.53499E-004	  3.83562E-004	  1.07926E-004	  5.33683E-004	 -8.78021E-005	  2.23520E-005	  6.18473E-004	 -3.70880E-004	 -6.82719E-005	

"Count Rate"
       0.07813	     120.06580	     131.81024
       0.15625	     114.52766	     120.90101
       0.23438	     151.36719	     150.60907
       0.31250	     136.23047	     136.33327
       0.39063	     123.71505	     116.13384
       0.46875	     103.07874	     119.03783
       0.54688	     104.37654	     141.03619
       0.62500	     110.68565	     131.18062
       0.70313	     125.51398	     136.98859
       0.78125	     137.91376	     147.42239
       0.85938	     122.10886	     117.98417
       0.93750	     112.56168	     123.98489
       1.01563	     126.86318	     132.19572
       1.09375	     117.67578	     128.79060
       1.17188	     121.33789	     114.47626
       1.25000	     117.36739	     125.03855
       1.32813	     115.91541	     111.66222
       1.40625	     126.51624	     132.28568
       1.48438	     121.59489	     130.19121
       1.56250	     124.60167	     138.94171
       1.64063	     128.75206	     130.29401
       1.71875	     130.35825	     141.44737
       1.79688	     141.84570	     160.01491
       1.87500	     123.32957	     128.26378
       1.95313	     107.37048	     137.46402
       2.03125	     114.34776	     127.65985
       2.10938	     117.17465	     132.64546
       2.18750	     129.17609	     109.52920
       2.26563	     120.01440	     120.54122
       2.34375	     138.62048	     136.53886
       2.42188	     116.50648	     120.93956
       2.50000	     110.87840	     114.96454
       2.57813	     135.08687	     145.50781
       2.65625	     116.31374	     133.13374
       2.73438	     110.12028	     129.75432
       2.81250	     129.99846	     136.98859
       2.89063	     126.04081	     127.64700
       2.96875	     100.49599	     115.72266
       3.04688	     123.79215	     126.46484
       3.12500	     131.87450	     134.66283
       3.20313	     150.69902	     132.95384
       3.28125	     117.04616	     114.79749
       3.35938	     109.78619	     111.04544
       3.43750	     118.76799	     116.32658
       3.51563	     123.59940	     128.13528
       3.59375	     110.71135	     117.58584
       3.67188	     124.07484	     113.92373
       3.75000	     119.06353	     123.07258
       3.82813	     109.32361	     119.79595
       3.90625	     102.84745	     121.19655
       3.98438	     120.75967	     131.20631
       4.06250	     111.34098	     118.21546
       4.14063	     125.61678	     134.91982
       4.21875	     107.58892	     122.98263
       4.29688	     112.17619	     120.43843
       4.37500	     122.81559	     124.98715
       4.45313	     123.84354	     133.67342
       4.53125	     113.42260	     121.64628
       4.60938	     138.45343	     148.34756
       4.68750	     129.53587	     125.80952
       4.76563	     136.08913	     159.17969
       4.84375	     117.81713	     137.19418
       4.92188	     130.25545	     115.64556
       5.00000	     120.93956	     130.84653
       5.07813	     107.31908	     122.28876
       5.15625	     128.04533	     127.50565
       5.23438	     107.04924	     122.08317
       5.31250	     117.61153	     120.20714
       5.39063	     131.29626	     123.26532
       5.46875	     135.97348	     130.83368
       5.54688	     143.99158	     137.79811
       5.62500	     128.22523	     133.36504
       5.70313	     127.62130	     130.39679
       5.78125	     121.86472	     123.56086
       5.85938	     121.85188	     125.77097
       5.93750	     108.53979	     122.40440
       6.01563	     116.19809	     130.57669
       6.09375	     134.00751	     141.07474
       6.17188	     124.92290	     131.52756
       6.25000	     144.40276	     151.67558
       6.32813	     129.07330	     124.52457
       6.40625	     130.92363	     141.21608
       6.48438	     115.65841	     126.46484
       6.56250	     134.91982	     121.27364
       6.64063	     122.25021	     140.93340
       6.71875	     117.07186	     141.19038
       6.79688	     124.61452	     141.96135
       6.87500	     112.04770	     126.78609
       6.95313	     112.07340	     116.33944
       7.03125	     110.09457	     109.54205
       7.10938	     127.55705	     128.82916
       7.18750	     120.96526	     121.38929
       7.26563	     105.77714	     113.43545
       7.34375	     136.69305	     143.69603
       7.42188	     117.47019	     119.25627
       7.50000	     119.69315	     130.94933
       7.57813	     125.87377	     130.49959
       7.65625	     120.59262	     132.94099
       7.73438	     113.03711	     119.42332
       7.81250	     126.83749	     128.50792
       7.89063	     117.16180	     129.36884
       7.96875	     103.01450	     131.55325
       8.04688	     138.10651	     163.22728
       8.12500	     127.39001	     131.29626
       8.20313	     131.81024	     124.42178
       8.28125	     132.38847	     146.18884
       8.35938	     131.66890	     120.19429
       8.43750	     126.19501	     127.54420
       8.51563	     123.48376	     136.56456
       8.59375	     121.74908	     116.90482
       8.67188	     116.75062	     141.46022
       8.75000	     112.76727	     127.28722
       8.82813	     138.82608	     140.21382
       8.90625	     123.48376	     134.95837
       8.98438	     132.11864	     133.62202
       9.06250	     133.01810	     124.55027
       9.14063	     114.87460	     125.39834
       9.21875	     108.01295	     130.19121
       9.29688	     125.35979	     131.41191
       9.37500	     114.52766	     133.99466
       9.45313	     115.50422	     110.39011
       9.53125	     118.21546	     117.75288
       9.60938	     123.32957	     111.36668
       9.68750	     124.70447	     135.39525
       9.76563	     117.12325	     134.67567
       9.84375	     125.17989	     139.31436
       9.92188	     141.66582	     143.83739
      10.00000	     108.83533	     126.69614
      10.07813	     128.80345	     131.30911
      10.15625	     112.63878	     116.42938
      10.23438	     114.11647	     119.57751
      10.31250	      95.90872	     112.72872
      10.39063	     130.04987	     139.75124
      10.46875	     128.89340	     133.55777
      10.54688	     122.86698	     130.21690
      10.62500	     134.34160	     128.54646
      10.70313	     119.42332	     126.86318
      10.78125	     113.79523	     119.28197
      10.85938	     126.37490	     141.43452
      10.93750	     113.21700	     121.86472
      11.01563	     114.46341	     136.20477
      11.09375	     111.80356	     121.13230
      11.17188	     127.26151	     135.57515
      11.25000	     115.41427	     131.69460
      11.32813	     105.48161	     110.63425
      11.40625	     132.19572	     142.86082
      11.48438	     129.54872	     153.34601
      11.56250	     123.92065	     135.08687
      11.64063	     118.71659	     130.49959
      11.71875	     125.50114	     117.70148
      11.79688	     112.57453	     122.26306
      11.87500	     131.84879	     127.40286
      11.95313	     119.71886	     122.62284
      12.03125	     133.28793	     145.26367
      12.10938	     113.64104	     130.01131
      12.18750	     120.32278	     129.76717
      12.26563	     113.47400	     125.35979
      12.34375	     139.51994	     151.77838
      12.42188	     133.37788	     134.71423
      12.50000	     121.18370	     106.86935
      12.57813	     121.63343	     114.82320
      12.65625	     112.52313	     118.65234
      12.73438	     130.60239	     123.97205
      12.81250	     101.35691	     115.49137
      12.89063	     117.11040	     119.24342
      12.96875	     114.16787	     115.96680
      13.04688	     121.09375	     113.33265
      13.12500	     129.45879	     144.36421
      13.20313	     118.70374	     129.86996
      13.28125	     114.47626	     118.60095
      13.35938	     109.56775	     122.84129
      13.43750	     102.19213	     122.37870
      13.51563	     113.60249	     129.07330
      13.59375	     108.37274	     125.84807
      13.67188	     117.23890	     144.00443
      13.75000	     114.68185	     113.37120
      13.82813	     123.22677	     129.52303
      13.90625	     113.38405	     117.65009
      13.98438	     112.60023	     128.64926
      14.06250	     119.47472	     121.22225
      14.14063	     116.31374	     130.37109
      14.21875	     142.16695	     143.49045
      14.29688	     135.33101	     141.73006
      14.37500	     141.22893	     119.39762
      14.45313	     127.98109	     139.45570
      14.53125	     143.01501	     135.47235
      14.60938	     136.06343	     127.44141
      14.68750	     103.36143	     126.87603
      14.76563	     109.70909	     116.55788
      14.84375	     149.33698	     135.33101
      14.92188	     122.87984	     128.23808
      15.00000	     116.13384	     110.74990
      15.07813	     140.25237	     128.41797
      15.15625	     123.40666	     126.83749
      15.23438	     108.96382	     110.44151
      15.31250	     143.70889	     148.82298
      15.39063	     113.66674	     137.66962
      15.46875	     129.90851	     119.03783
      15.54688	     114.24496	     120.79822
      15.62500	     125.86092	     126.63189
      15.70313	     111.32813	     125.69388
      15.78125	     111.03259	     111.04544
      15.85938	     130.40965	     132.29852
      15.93750	     135.57515	     139.71269
      16.01563	     139.03166	     138.06795
      16.09375	     133.89186	     147.67938
      16.17188	     133.32648	     133.78906
      16.25000	     125.32124	     128.71352
      16.32813	     110.59570	     120.42558
      16.40625	     108.03865	     110.50576
      16.48438	     114.65615	     131.32196
      16.56250	     130.49959	     148.46320
      16.64063	     115.00309	     129.57443
      16.71875	     115.37572	     129.39453
      16.79688	     137.65677	     139.90543
      16.87500	     125.03855	     123.77930
      16.95313	     126.09221	     123.72791
      17.03125	     124.65307	     122.09602
      17.10938	     131.74599	     142.42393
      17.18750	     126.68329	     148.63025
      17.26563	     111.85496	     116.44223
      17.34375	      88.66160	     116.24949
      17.42188	     119.01213	     131.05212
      17.50000	     121.68483	     108.84818
      17.57813	     122.17311	     125.29554
      17.65625	      95.13775	     108.05151
      17.73438	     117.86853	     136.01202
      17.81250	     116.50648	     126.81178
      17.89063	     113.64104	     106.56096
      17.96875	     110.91695	     115.90255
      18.04688	     128.77776	     125.28269
      18.12500	     134.32875	     142.51389
      18.20313	     136.07628	     156.54555
      18.28125	     111.48232	     113.15276
      18.35938	     109.82474	     116.73777
      18.43750	     110.86555	     120.86246
      18.51563	     143.65749	     147.69223
      18.59375	     120.74682	     132.05438
      18.67188	     116.32658	     126.29781
      18.75000	     138.71043	     127.98109
      18.82813	     130.76942	     131.14207
      18.90625	     133.03094	     138.35065
      18.98438	     127.90399	     147.28105
      19.06250	     123.00833	     141.26749
      19.14063	      98.13168	      96.85958
      19.21875	      83.12346	     109.47780
      19.29688	     102.17928	     119.71886
      19.37500	     115.17013	     130.20406
      19.45313	     107.97440	     123.86925
      19.53125	     103.70837	     116.89197
      19.60938	     121.15800	     131.28342
      19.68750	     129.79286	     135.18967
      19.76563	     126.81178	     125.08995
