ALV-5000/E-WIN Data
Date :	"06.12.2013"
Time :	"12:53:22"
Samplename : 	""
SampMemo(0) : 	""
SampMemo(1) : 	""
SampMemo(2) : 	""
SampMemo(3) : 	""
SampMemo(4) : 	""
SampMemo(5) : 	""
SampMemo(6) : 	""
SampMemo(7) : 	""
SampMemo(8) : 	""
SampMemo(9) : 	""
Temperature [K] :	     298.16000
Viscosity [cp]  :	       0.89000
Refractive Index:	       1.33200
Wavelength [nm] :	     488.00000
Angle [°]       :	       0.00000
Duration [s]    :	        20
Runs            :	         6
Mode            :	"DUAL AUTO CH0"
MeanCR0 [kHz]   :	     100.92528
MeanCR1 [kHz]   :	       0.00000

"Correlation (Multi, Averaged)"
"Lag [ms]"	"Average(0)"	"Run  1"	"Run  2"	"Run  3"	"Run  4"	"Run  5"	"Run  6"	"Average(1)"	" 1,   0.000"	" 2,   0.000"	" 3,   0.000"	" 4,   0.000"	" 5,   0.000"	" 6,   0.000"	
  4.00000E-004	  4.03487E-001	  4.03904E-001	  4.01270E-001	  4.03632E-001	  3.99381E-001	  4.06603E-001	  4.06132E-001	  3.34215E-001	  3.31197E-001	  3.30709E-001	  3.40756E-001	  3.38144E-001	  3.36558E-001	  3.27927E-001	
  8.00000E-004	  2.86854E-001	  2.91502E-001	  2.89125E-001	  2.82548E-001	  2.86686E-001	  2.86273E-001	  2.84990E-001	  2.84139E-001	  2.81110E-001	  2.80732E-001	  2.85279E-001	  2.89616E-001	  2.84265E-001	  2.83829E-001	
  1.20000E-003	  2.67812E-001	  2.71681E-001	  2.64087E-001	  2.72594E-001	  2.63242E-001	  2.65611E-001	  2.69661E-001	  2.73590E-001	  2.74404E-001	  2.72448E-001	  2.67433E-001	  2.76451E-001	  2.75420E-001	  2.75386E-001	
  1.60000E-003	  2.57739E-001	  2.58081E-001	  2.53829E-001	  2.60674E-001	  2.47667E-001	  2.62842E-001	  2.63338E-001	  2.62248E-001	  2.62511E-001	  2.65138E-001	  2.58798E-001	  2.66523E-001	  2.60389E-001	  2.60130E-001	
  2.00000E-003	  2.55715E-001	  2.59084E-001	  2.59796E-001	  2.52229E-001	  2.49790E-001	  2.63804E-001	  2.49587E-001	  2.59192E-001	  2.56776E-001	  2.61100E-001	  2.52100E-001	  2.57923E-001	  2.69116E-001	  2.58135E-001	
  2.40000E-003	  2.48568E-001	  2.50843E-001	  2.43267E-001	  2.48273E-001	  2.45849E-001	  2.51832E-001	  2.51342E-001	  2.55849E-001	  2.60978E-001	  2.57867E-001	  2.56472E-001	  2.57841E-001	  2.49530E-001	  2.52407E-001	
  2.80000E-003	  2.47070E-001	  2.55465E-001	  2.39501E-001	  2.45483E-001	  2.45074E-001	  2.49371E-001	  2.47526E-001	  2.48624E-001	  2.50555E-001	  2.45623E-001	  2.42783E-001	  2.53453E-001	  2.50465E-001	  2.48865E-001	
  3.20000E-003	  2.47249E-001	  2.51859E-001	  2.47729E-001	  2.40804E-001	  2.47921E-001	  2.44090E-001	  2.51088E-001	  2.47699E-001	  2.47374E-001	  2.46817E-001	  2.43879E-001	  2.54591E-001	  2.47832E-001	  2.45702E-001	
  3.60000E-003	  2.44755E-001	  2.39390E-001	  2.47949E-001	  2.45394E-001	  2.39416E-001	  2.46859E-001	  2.49523E-001	  2.46298E-001	  2.43874E-001	  2.48220E-001	  2.53410E-001	  2.51841E-001	  2.41041E-001	  2.39404E-001	
  4.00000E-003	  2.40661E-001	  2.39999E-001	  2.39746E-001	  2.43835E-001	  2.45213E-001	  2.41078E-001	  2.34093E-001	  2.42406E-001	  2.39161E-001	  2.45350E-001	  2.37516E-001	  2.43254E-001	  2.49952E-001	  2.39201E-001	
  4.40000E-003	  2.43746E-001	  2.51161E-001	  2.41274E-001	  2.38927E-001	  2.39708E-001	  2.46808E-001	  2.44600E-001	  2.38963E-001	  2.38075E-001	  2.37650E-001	  2.36019E-001	  2.35629E-001	  2.44094E-001	  2.42309E-001	
  4.80000E-003	  2.38780E-001	  2.35949E-001	  2.37252E-001	  2.35605E-001	  2.35487E-001	  2.42783E-001	  2.45605E-001	  2.35457E-001	  2.40502E-001	  2.35352E-001	  2.31447E-001	  2.37525E-001	  2.40685E-001	  2.27229E-001	
  5.20000E-003	  2.39512E-001	  2.42552E-001	  2.39244E-001	  2.43556E-001	  2.36415E-001	  2.33798E-001	  2.41509E-001	  2.32211E-001	  2.26272E-001	  2.28600E-001	  2.34281E-001	  2.30970E-001	  2.39356E-001	  2.33785E-001	
  5.60000E-003	  2.33765E-001	  2.29270E-001	  2.29843E-001	  2.36404E-001	  2.30682E-001	  2.43014E-001	  2.33380E-001	  2.31805E-001	  2.31790E-001	  2.33950E-001	  2.25204E-001	  2.30415E-001	  2.35105E-001	  2.34369E-001	
  6.00000E-003	  2.35393E-001	  2.47237E-001	  2.32912E-001	  2.39777E-001	  2.27986E-001	  2.40642E-001	  2.23801E-001	  2.29100E-001	  2.30679E-001	  2.25718E-001	  2.33920E-001	  2.27597E-001	  2.24193E-001	  2.32496E-001	
  6.40000E-003	  2.35125E-001	  2.40104E-001	  2.35328E-001	  2.35650E-001	  2.29368E-001	  2.39166E-001	  2.31133E-001	  2.28926E-001	  2.32608E-001	  2.26716E-001	  2.26099E-001	  2.31474E-001	  2.28546E-001	  2.28111E-001	
  7.20000E-003	  2.34242E-001	  2.34180E-001	  2.30682E-001	  2.34268E-001	  2.29692E-001	  2.39620E-001	  2.37010E-001	  2.24686E-001	  2.25091E-001	  2.23990E-001	  2.22362E-001	  2.27602E-001	  2.22945E-001	  2.26129E-001	
  8.00000E-003	  2.32544E-001	  2.36002E-001	  2.31960E-001	  2.27357E-001	  2.28993E-001	  2.37986E-001	  2.32964E-001	  2.20680E-001	  2.19796E-001	  2.24457E-001	  2.18492E-001	  2.21940E-001	  2.18885E-001	  2.20509E-001	
  8.80000E-003	  2.28803E-001	  2.34091E-001	  2.30114E-001	  2.25049E-001	  2.23430E-001	  2.36107E-001	  2.24028E-001	  2.17769E-001	  2.19061E-001	  2.21425E-001	  2.12102E-001	  2.23735E-001	  2.17345E-001	  2.12942E-001	
  9.60000E-003	  2.31839E-001	  2.37196E-001	  2.29154E-001	  2.29221E-001	  2.27906E-001	  2.33582E-001	  2.33976E-001	  2.15134E-001	  2.12093E-001	  2.13856E-001	  2.15825E-001	  2.24927E-001	  2.15193E-001	  2.08911E-001	
  1.04000E-002	  2.28647E-001	  2.32345E-001	  2.23237E-001	  2.31669E-001	  2.28242E-001	  2.26411E-001	  2.29981E-001	  2.10880E-001	  2.13070E-001	  2.09305E-001	  2.06742E-001	  2.17003E-001	  2.10402E-001	  2.08755E-001	
  1.12000E-002	  2.26553E-001	  2.32135E-001	  2.24802E-001	  2.24891E-001	  2.24332E-001	  2.27225E-001	  2.25930E-001	  2.09854E-001	  2.09417E-001	  2.07785E-001	  2.08393E-001	  2.17836E-001	  2.10810E-001	  2.04880E-001	
  1.20000E-002	  2.26989E-001	  2.33964E-001	  2.24019E-001	  2.26045E-001	  2.22800E-001	  2.31012E-001	  2.24092E-001	  2.09794E-001	  2.10247E-001	  2.09272E-001	  2.07143E-001	  2.11349E-001	  2.14304E-001	  2.06448E-001	
  1.28000E-002	  2.26246E-001	  2.30182E-001	  2.24179E-001	  2.27017E-001	  2.25504E-001	  2.26675E-001	  2.23918E-001	  2.07060E-001	  2.06602E-001	  2.07777E-001	  2.03952E-001	  2.09557E-001	  2.06517E-001	  2.07957E-001	
  1.44000E-002	  2.24184E-001	  2.24999E-001	  2.22426E-001	  2.23710E-001	  2.22881E-001	  2.27143E-001	  2.23944E-001	  2.04475E-001	  2.04521E-001	  2.07560E-001	  2.00203E-001	  2.08937E-001	  2.04266E-001	  2.01363E-001	
  1.60000E-002	  2.25094E-001	  2.24712E-001	  2.23823E-001	  2.22697E-001	  2.25179E-001	  2.27089E-001	  2.27064E-001	  2.02075E-001	  1.99156E-001	  2.04885E-001	  2.03799E-001	  2.06580E-001	  1.97925E-001	  2.00104E-001	
  1.76000E-002	  2.21081E-001	  2.24331E-001	  2.17493E-001	  2.20928E-001	  2.20663E-001	  2.22826E-001	  2.20248E-001	  1.99699E-001	  1.98005E-001	  2.04930E-001	  1.97682E-001	  2.03925E-001	  1.99810E-001	  1.93840E-001	
  1.92000E-002	  2.21237E-001	  2.26642E-001	  2.17603E-001	  2.18192E-001	  2.18226E-001	  2.25572E-001	  2.21190E-001	  1.98099E-001	  1.98765E-001	  1.97798E-001	  1.98317E-001	  1.99517E-001	  1.97362E-001	  1.96833E-001	
  2.08000E-002	  2.20997E-001	  2.27235E-001	  2.18169E-001	  2.19485E-001	  2.17861E-001	  2.20496E-001	  2.22735E-001	  1.98004E-001	  1.99644E-001	  1.93572E-001	  1.96649E-001	  2.02659E-001	  1.98310E-001	  1.97193E-001	
  2.24000E-002	  2.19200E-001	  2.20178E-001	  2.13920E-001	  2.22383E-001	  2.14638E-001	  2.22019E-001	  2.22064E-001	  1.94063E-001	  1.90615E-001	  1.92767E-001	  1.93785E-001	  1.98674E-001	  1.96592E-001	  1.91943E-001	
  2.40000E-002	  2.21333E-001	  2.26216E-001	  2.17922E-001	  2.20728E-001	  2.17721E-001	  2.22330E-001	  2.23081E-001	  1.93399E-001	  1.92192E-001	  1.94585E-001	  1.91095E-001	  1.96714E-001	  1.94334E-001	  1.91471E-001	
  2.56000E-002	  2.19223E-001	  2.20418E-001	  2.18834E-001	  2.20475E-001	  2.15671E-001	  2.20875E-001	  2.19068E-001	  1.93433E-001	  1.92934E-001	  1.94366E-001	  1.91325E-001	  1.97540E-001	  1.91187E-001	  1.93248E-001	
  2.88000E-002	  2.17452E-001	  2.20222E-001	  2.14410E-001	  2.18553E-001	  2.14197E-001	  2.16522E-001	  2.20811E-001	  1.91291E-001	  1.90769E-001	  1.92184E-001	  1.90627E-001	  1.95638E-001	  1.90609E-001	  1.87916E-001	
  3.20000E-002	  2.16056E-001	  2.20154E-001	  2.14587E-001	  2.15822E-001	  2.12390E-001	  2.17607E-001	  2.15778E-001	  1.89356E-001	  1.88762E-001	  1.90254E-001	  1.88455E-001	  1.92465E-001	  1.89570E-001	  1.86629E-001	
  3.52000E-002	  2.16152E-001	  2.18378E-001	  2.13524E-001	  2.15633E-001	  2.12956E-001	  2.19854E-001	  2.16568E-001	  1.88644E-001	  1.87892E-001	  1.90061E-001	  1.85905E-001	  1.92667E-001	  1.87310E-001	  1.88032E-001	
  3.84000E-002	  2.14526E-001	  2.17352E-001	  2.11377E-001	  2.15061E-001	  2.11375E-001	  2.16238E-001	  2.15751E-001	  1.86481E-001	  1.86611E-001	  1.89041E-001	  1.83662E-001	  1.90546E-001	  1.84730E-001	  1.84296E-001	
  4.16000E-002	  2.13579E-001	  2.16464E-001	  2.11786E-001	  2.14058E-001	  2.12254E-001	  2.14189E-001	  2.12724E-001	  1.87001E-001	  1.85623E-001	  1.89531E-001	  1.84306E-001	  1.90768E-001	  1.87925E-001	  1.83852E-001	
  4.48000E-002	  2.11361E-001	  2.13739E-001	  2.08807E-001	  2.11080E-001	  2.08884E-001	  2.13700E-001	  2.11957E-001	  1.82806E-001	  1.80930E-001	  1.86062E-001	  1.79674E-001	  1.87957E-001	  1.83068E-001	  1.79147E-001	
  4.80000E-002	  2.09217E-001	  2.11176E-001	  2.08752E-001	  2.08860E-001	  2.07740E-001	  2.11827E-001	  2.06950E-001	  1.82208E-001	  1.82553E-001	  1.83560E-001	  1.79015E-001	  1.84550E-001	  1.81940E-001	  1.81631E-001	
  5.12000E-002	  2.09258E-001	  2.11174E-001	  2.07914E-001	  2.08009E-001	  2.07624E-001	  2.12229E-001	  2.08598E-001	  1.81780E-001	  1.80345E-001	  1.83354E-001	  1.80067E-001	  1.85890E-001	  1.81896E-001	  1.79124E-001	
  5.76000E-002	  2.07018E-001	  2.09031E-001	  2.06150E-001	  2.04043E-001	  2.04548E-001	  2.09375E-001	  2.08962E-001	  1.80022E-001	  1.79695E-001	  1.82638E-001	  1.77012E-001	  1.83586E-001	  1.79769E-001	  1.77434E-001	
  6.40000E-002	  2.04947E-001	  2.08503E-001	  2.03620E-001	  2.05165E-001	  2.00760E-001	  2.05023E-001	  2.06609E-001	  1.78317E-001	  1.78622E-001	  1.79782E-001	  1.75222E-001	  1.82171E-001	  1.77333E-001	  1.76772E-001	
  7.04000E-002	  2.01853E-001	  2.05225E-001	  2.00118E-001	  2.00664E-001	  1.99199E-001	  2.03787E-001	  2.02128E-001	  1.76266E-001	  1.76734E-001	  1.77490E-001	  1.75052E-001	  1.78779E-001	  1.74231E-001	  1.75311E-001	
  7.68000E-002	  1.99990E-001	  2.01098E-001	  1.98025E-001	  2.00520E-001	  1.97640E-001	  2.01085E-001	  2.01573E-001	  1.74844E-001	  1.74969E-001	  1.75165E-001	  1.72502E-001	  1.79767E-001	  1.74994E-001	  1.71665E-001	
  8.32000E-002	  1.99569E-001	  2.02082E-001	  1.97596E-001	  1.99706E-001	  1.95594E-001	  2.02537E-001	  1.99898E-001	  1.72838E-001	  1.73177E-001	  1.73336E-001	  1.70274E-001	  1.76292E-001	  1.73439E-001	  1.70509E-001	
  8.96000E-002	  1.97294E-001	  1.99104E-001	  1.95872E-001	  1.97177E-001	  1.94291E-001	  1.99032E-001	  1.98290E-001	  1.71106E-001	  1.70574E-001	  1.72703E-001	  1.69769E-001	  1.73006E-001	  1.71334E-001	  1.69249E-001	
  9.60000E-002	  1.95394E-001	  1.96304E-001	  1.93831E-001	  1.95580E-001	  1.91448E-001	  1.99160E-001	  1.96042E-001	  1.70005E-001	  1.68786E-001	  1.71466E-001	  1.65058E-001	  1.74094E-001	  1.70253E-001	  1.70373E-001	
  1.02400E-001	  1.93789E-001	  1.96375E-001	  1.91995E-001	  1.93011E-001	  1.89590E-001	  1.97036E-001	  1.94727E-001	  1.68328E-001	  1.67455E-001	  1.69094E-001	  1.65211E-001	  1.71776E-001	  1.69571E-001	  1.66860E-001	
  1.15200E-001	  1.90057E-001	  1.92760E-001	  1.88021E-001	  1.90296E-001	  1.86977E-001	  1.92787E-001	  1.89501E-001	  1.64913E-001	  1.64071E-001	  1.68728E-001	  1.62662E-001	  1.66712E-001	  1.65208E-001	  1.62100E-001	
  1.28000E-001	  1.86412E-001	  1.88812E-001	  1.84761E-001	  1.86841E-001	  1.83985E-001	  1.87052E-001	  1.87019E-001	  1.62224E-001	  1.62138E-001	  1.64941E-001	  1.59727E-001	  1.65142E-001	  1.61447E-001	  1.59949E-001	
  1.40800E-001	  1.83510E-001	  1.85321E-001	  1.82055E-001	  1.83177E-001	  1.81034E-001	  1.85503E-001	  1.83969E-001	  1.59186E-001	  1.58393E-001	  1.61639E-001	  1.56973E-001	  1.61926E-001	  1.59119E-001	  1.57067E-001	
  1.53600E-001	  1.80972E-001	  1.82168E-001	  1.80131E-001	  1.80977E-001	  1.77974E-001	  1.82811E-001	  1.81771E-001	  1.56423E-001	  1.56512E-001	  1.56875E-001	  1.53754E-001	  1.59263E-001	  1.56912E-001	  1.55221E-001	
  1.66400E-001	  1.78271E-001	  1.79732E-001	  1.77341E-001	  1.77154E-001	  1.76448E-001	  1.80442E-001	  1.78506E-001	  1.54115E-001	  1.54361E-001	  1.56937E-001	  1.50299E-001	  1.57037E-001	  1.53363E-001	  1.52694E-001	
  1.79200E-001	  1.75220E-001	  1.76459E-001	  1.72639E-001	  1.75494E-001	  1.73297E-001	  1.78374E-001	  1.75055E-001	  1.51753E-001	  1.51437E-001	  1.52089E-001	  1.49584E-001	  1.54865E-001	  1.52241E-001	  1.50304E-001	
  1.92000E-001	  1.71691E-001	  1.72825E-001	  1.69620E-001	  1.71538E-001	  1.69992E-001	  1.74190E-001	  1.71983E-001	  1.49036E-001	  1.49291E-001	  1.49654E-001	  1.47358E-001	  1.51741E-001	  1.49530E-001	  1.46640E-001	
  2.04800E-001	  1.69129E-001	  1.70699E-001	  1.67356E-001	  1.69103E-001	  1.67002E-001	  1.70725E-001	  1.69890E-001	  1.46602E-001	  1.45347E-001	  1.49074E-001	  1.44018E-001	  1.49570E-001	  1.47147E-001	  1.44457E-001	
  2.30400E-001	  1.64221E-001	  1.66824E-001	  1.62603E-001	  1.64547E-001	  1.61979E-001	  1.65058E-001	  1.64311E-001	  1.42053E-001	  1.41347E-001	  1.42629E-001	  1.39955E-001	  1.44158E-001	  1.42316E-001	  1.41911E-001	
  2.56000E-001	  1.59517E-001	  1.61504E-001	  1.57925E-001	  1.59353E-001	  1.57109E-001	  1.61166E-001	  1.60047E-001	  1.38170E-001	  1.37466E-001	  1.40258E-001	  1.35465E-001	  1.41314E-001	  1.38143E-001	  1.36374E-001	
  2.81600E-001	  1.54386E-001	  1.56232E-001	  1.53232E-001	  1.54298E-001	  1.52224E-001	  1.56095E-001	  1.54236E-001	  1.34139E-001	  1.33316E-001	  1.36619E-001	  1.32198E-001	  1.36583E-001	  1.33460E-001	  1.32657E-001	
  3.07200E-001	  1.50671E-001	  1.51843E-001	  1.49478E-001	  1.50448E-001	  1.48206E-001	  1.53303E-001	  1.50746E-001	  1.30240E-001	  1.28803E-001	  1.31458E-001	  1.27089E-001	  1.33844E-001	  1.30476E-001	  1.29771E-001	
  3.32800E-001	  1.46473E-001	  1.48438E-001	  1.45197E-001	  1.46402E-001	  1.43190E-001	  1.48920E-001	  1.46694E-001	  1.26984E-001	  1.25069E-001	  1.29033E-001	  1.25311E-001	  1.29742E-001	  1.26261E-001	  1.26485E-001	
  3.58400E-001	  1.42336E-001	  1.44040E-001	  1.41659E-001	  1.42267E-001	  1.39634E-001	  1.43889E-001	  1.42526E-001	  1.23308E-001	  1.21478E-001	  1.25287E-001	  1.21782E-001	  1.26238E-001	  1.23329E-001	  1.21733E-001	
  3.84000E-001	  1.38888E-001	  1.40734E-001	  1.38853E-001	  1.38085E-001	  1.35643E-001	  1.41183E-001	  1.38829E-001	  1.19744E-001	  1.18344E-001	  1.21955E-001	  1.17169E-001	  1.22292E-001	  1.19894E-001	  1.18807E-001	
  4.09600E-001	  1.35466E-001	  1.37125E-001	  1.35044E-001	  1.34976E-001	  1.33050E-001	  1.37598E-001	  1.35003E-001	  1.16980E-001	  1.16099E-001	  1.19649E-001	  1.14150E-001	  1.19553E-001	  1.16237E-001	  1.16194E-001	
  4.60800E-001	  1.29141E-001	  1.30731E-001	  1.29320E-001	  1.28776E-001	  1.26898E-001	  1.30934E-001	  1.28189E-001	  1.11384E-001	  1.09567E-001	  1.13743E-001	  1.08688E-001	  1.13647E-001	  1.11604E-001	  1.11057E-001	
  5.12000E-001	  1.23030E-001	  1.23975E-001	  1.23175E-001	  1.22729E-001	  1.20414E-001	  1.24893E-001	  1.22992E-001	  1.05992E-001	  1.03884E-001	  1.08589E-001	  1.04125E-001	  1.07713E-001	  1.06432E-001	  1.05211E-001	
  5.63200E-001	  1.17674E-001	  1.18974E-001	  1.18035E-001	  1.17047E-001	  1.15381E-001	  1.19236E-001	  1.17370E-001	  1.01554E-001	  9.95281E-002	  1.04643E-001	  9.96330E-002	  1.04203E-001	  1.01203E-001	  1.00113E-001	
  6.14400E-001	  1.12787E-001	  1.14625E-001	  1.13632E-001	  1.11948E-001	  1.10313E-001	  1.14293E-001	  1.11909E-001	  9.70979E-002	  9.49732E-002	  9.96822E-002	  9.49207E-002	  9.94326E-002	  9.71038E-002	  9.64746E-002	
  6.65600E-001	  1.08273E-001	  1.09980E-001	  1.08737E-001	  1.07859E-001	  1.05744E-001	  1.09745E-001	  1.07573E-001	  9.30114E-002	  9.09289E-002	  9.53513E-002	  9.14815E-002	  9.57413E-002	  9.22598E-002	  9.23056E-002	
  7.16800E-001	  1.03813E-001	  1.05890E-001	  1.04086E-001	  1.02857E-001	  1.01740E-001	  1.05215E-001	  1.03089E-001	  8.92130E-002	  8.71537E-002	  9.15626E-002	  8.83329E-002	  9.12429E-002	  8.82870E-002	  8.86987E-002	
  7.68000E-001	  9.97498E-002	  1.01152E-001	  1.00143E-001	  9.90886E-002	  9.73636E-002	  1.01607E-001	  9.91447E-002	  8.61871E-002	  8.31889E-002	  8.84535E-002	  8.53819E-002	  8.79291E-002	  8.58712E-002	  8.62980E-002	
  8.19200E-001	  9.62676E-002	  9.75668E-002	  9.68522E-002	  9.55435E-002	  9.38312E-002	  9.79492E-002	  9.58628E-002	  8.28955E-002	  7.98869E-002	  8.53454E-002	  8.13872E-002	  8.45658E-002	  8.35372E-002	  8.26502E-002	
  9.21600E-001	  8.95160E-002	  9.10719E-002	  9.03046E-002	  8.86726E-002	  8.69578E-002	  9.09677E-002	  8.91212E-002	  7.70737E-002	  7.38005E-002	  8.07531E-002	  7.57033E-002	  7.81658E-002	  7.70660E-002	  7.69536E-002	
  1.02400E+000	  8.37378E-002	  8.54416E-002	  8.51467E-002	  8.38903E-002	  8.05709E-002	  8.38692E-002	  8.35081E-002	  7.24182E-002	  6.94020E-002	  7.64353E-002	  7.11034E-002	  7.29748E-002	  7.27203E-002	  7.18736E-002	
  1.12640E+000	  7.88665E-002	  7.99940E-002	  8.07260E-002	  7.89874E-002	  7.61273E-002	  7.90034E-002	  7.83610E-002	  6.82624E-002	  6.50136E-002	  7.26653E-002	  6.71481E-002	  6.84163E-002	  6.83094E-002	  6.80217E-002	
  1.22880E+000	  7.43238E-002	  7.54698E-002	  7.64194E-002	  7.37550E-002	  7.13412E-002	  7.54471E-002	  7.35103E-002	  6.39586E-002	  6.06542E-002	  6.86033E-002	  6.26982E-002	  6.37064E-002	  6.41782E-002	  6.39111E-002	
  1.33120E+000	  7.03773E-002	  7.16259E-002	  7.25346E-002	  6.96911E-002	  6.70651E-002	  7.05672E-002	  7.07800E-002	  6.07827E-002	  5.75763E-002	  6.59545E-002	  5.91213E-002	  6.13910E-002	  5.99814E-002	  6.06718E-002	
  1.43360E+000	  6.67370E-002	  6.71218E-002	  6.91075E-002	  6.64523E-002	  6.35383E-002	  6.70421E-002	  6.71601E-002	  5.77344E-002	  5.44963E-002	  6.23314E-002	  5.68832E-002	  5.81888E-002	  5.65413E-002	  5.79653E-002	
  1.53600E+000	  6.31400E-002	  6.37904E-002	  6.52890E-002	  6.22123E-002	  6.02046E-002	  6.36376E-002	  6.37062E-002	  5.49186E-002	  5.16458E-002	  5.96680E-002	  5.31557E-002	  5.55377E-002	  5.43176E-002	  5.51866E-002	
  1.63840E+000	  6.03916E-002	  6.09864E-002	  6.23109E-002	  5.95421E-002	  5.79754E-002	  6.10802E-002	  6.04544E-002	  5.21702E-002	  4.89305E-002	  5.63027E-002	  5.10872E-002	  5.31721E-002	  5.12160E-002	  5.23127E-002	
  1.84320E+000	  5.53743E-002	  5.61435E-002	  5.73518E-002	  5.41807E-002	  5.42020E-002	  5.59318E-002	  5.44362E-002	  4.78576E-002	  4.39205E-002	  5.21193E-002	  4.68206E-002	  4.91483E-002	  4.71068E-002	  4.80298E-002	
  2.04800E+000	  5.10412E-002	  5.20276E-002	  5.27505E-002	  4.99758E-002	  5.00721E-002	  5.16007E-002	  4.98203E-002	  4.38978E-002	  4.00800E-002	  4.77849E-002	  4.29475E-002	  4.52430E-002	  4.35802E-002	  4.37513E-002	
  2.25280E+000	  4.75482E-002	  4.89482E-002	  4.89921E-002	  4.70535E-002	  4.63246E-002	  4.76142E-002	  4.63565E-002	  4.06997E-002	  3.75302E-002	  4.50695E-002	  4.02276E-002	  4.10309E-002	  3.98332E-002	  4.05068E-002	
  2.45760E+000	  4.42424E-002	  4.53204E-002	  4.54219E-002	  4.36012E-002	  4.32868E-002	  4.49519E-002	  4.28721E-002	  3.75128E-002	  3.44660E-002	  4.19300E-002	  3.79451E-002	  3.74011E-002	  3.58122E-002	  3.75225E-002	
  2.66240E+000	  4.09977E-002	  4.14400E-002	  4.16349E-002	  4.09514E-002	  4.00634E-002	  4.15570E-002	  4.03398E-002	  3.49428E-002	  3.15523E-002	  3.88722E-002	  3.54833E-002	  3.58235E-002	  3.29669E-002	  3.49588E-002	
  2.86720E+000	  3.84750E-002	  3.82274E-002	  3.88241E-002	  3.81033E-002	  3.80854E-002	  3.94362E-002	  3.81737E-002	  3.25140E-002	  2.91809E-002	  3.65393E-002	  3.25948E-002	  3.29493E-002	  3.06083E-002	  3.32113E-002	
  3.07200E+000	  3.59408E-002	  3.47293E-002	  3.65806E-002	  3.60468E-002	  3.54581E-002	  3.69561E-002	  3.58737E-002	  3.06618E-002	  2.76435E-002	  3.47743E-002	  3.04390E-002	  3.06850E-002	  2.90506E-002	  3.13781E-002	
  3.27680E+000	  3.38535E-002	  3.25840E-002	  3.45382E-002	  3.44194E-002	  3.34352E-002	  3.48177E-002	  3.33265E-002	  2.91402E-002	  2.59236E-002	  3.30300E-002	  2.83304E-002	  2.87466E-002	  2.81702E-002	  3.06406E-002	
  3.68640E+000	  3.03874E-002	  2.87182E-002	  3.14659E-002	  3.14871E-002	  2.95756E-002	  3.12357E-002	  2.98417E-002	  2.62715E-002	  2.42323E-002	  3.07249E-002	  2.47809E-002	  2.54279E-002	  2.48208E-002	  2.76424E-002	
  4.09600E+000	  2.76925E-002	  2.63530E-002	  2.85887E-002	  2.88960E-002	  2.67327E-002	  2.79851E-002	  2.75994E-002	  2.40538E-002	  2.29220E-002	  2.82701E-002	  2.27165E-002	  2.29197E-002	  2.24766E-002	  2.50176E-002	
  4.50560E+000	  2.56068E-002	  2.48165E-002	  2.62241E-002	  2.59528E-002	  2.59536E-002	  2.55791E-002	  2.51147E-002	  2.21282E-002	  2.12681E-002	  2.52213E-002	  2.09720E-002	  2.14658E-002	  2.06385E-002	  2.32038E-002	
  4.91520E+000	  2.32545E-002	  2.22027E-002	  2.34822E-002	  2.38771E-002	  2.42330E-002	  2.30411E-002	  2.26907E-002	  2.06033E-002	  1.99034E-002	  2.35177E-002	  1.96087E-002	  1.93707E-002	  1.91473E-002	  2.20721E-002	
  5.32480E+000	  2.11521E-002	  1.98433E-002	  2.20087E-002	  2.20634E-002	  2.22406E-002	  2.05014E-002	  2.02551E-002	  1.88340E-002	  1.77546E-002	  2.17243E-002	  1.79490E-002	  1.67253E-002	  1.77965E-002	  2.10541E-002	
  5.73440E+000	  1.96950E-002	  1.83263E-002	  1.94796E-002	  2.04798E-002	  2.16314E-002	  1.91024E-002	  1.91503E-002	  1.73320E-002	  1.59275E-002	  2.00965E-002	  1.69309E-002	  1.49590E-002	  1.73057E-002	  1.87723E-002	
  6.14400E+000	  1.83983E-002	  1.69504E-002	  1.87908E-002	  1.93810E-002	  2.02575E-002	  1.70765E-002	  1.79339E-002	  1.60180E-002	  1.46112E-002	  1.88678E-002	  1.54647E-002	  1.37214E-002	  1.57895E-002	  1.76533E-002	
  6.45120E+000	  1.76538E-002	  1.60164E-002	  1.81196E-002	  1.94889E-002	  1.91384E-002	  1.62212E-002	  1.69382E-002	  1.55258E-002	  1.44588E-002	  1.77939E-002	  1.45286E-002	  1.37556E-002	  1.57853E-002	  1.68327E-002	
  7.27040E+000	  1.54573E-002	  1.42795E-002	  1.57333E-002	  1.72138E-002	  1.69176E-002	  1.42683E-002	  1.43313E-002	  1.37534E-002	  1.35444E-002	  1.55871E-002	  1.19011E-002	  1.22843E-002	  1.39469E-002	  1.52567E-002	
  8.08960E+000	  1.36021E-002	  1.37812E-002	  1.37065E-002	  1.50194E-002	  1.39743E-002	  1.30003E-002	  1.21311E-002	  1.19442E-002	  1.24597E-002	  1.37916E-002	  1.01377E-002	  9.75448E-003	  1.18828E-002	  1.36389E-002	
  8.90880E+000	  1.24772E-002	  1.22098E-002	  1.27549E-002	  1.29058E-002	  1.27142E-002	  1.29942E-002	  1.12841E-002	  1.08349E-002	  1.08697E-002	  1.27329E-002	  8.95912E-003	  8.66183E-003	  1.09693E-002	  1.28168E-002	
  9.72800E+000	  1.16679E-002	  1.34796E-002	  1.08686E-002	  1.18824E-002	  1.16309E-002	  1.17937E-002	  1.03523E-002	  9.69596E-003	  9.23991E-003	  1.10278E-002	  8.22163E-003	  8.07472E-003	  1.11125E-002	  1.04992E-002	
  1.05472E+001	  1.07230E-002	  1.15997E-002	  1.02401E-002	  1.15638E-002	  1.11758E-002	  1.07495E-002	  9.00924E-003	  9.36064E-003	  9.06588E-003	  9.98285E-003	  8.37137E-003	  8.84241E-003	  1.01567E-002	  9.74469E-003	
  1.13664E+001	  9.87407E-003	  1.09759E-002	  9.84944E-003	  1.07551E-002	  1.05206E-002	  9.47860E-003	  7.66477E-003	  8.66287E-003	  8.31157E-003	  9.35853E-003	  8.73816E-003	  8.37113E-003	  8.46142E-003	  8.73640E-003	
  1.21856E+001	  8.66383E-003	  9.71627E-003	  8.68026E-003	  1.02087E-002	  8.78680E-003	  8.23642E-003	  6.35448E-003	  8.03185E-003	  7.49697E-003	  9.53222E-003	  7.93340E-003	  7.81127E-003	  6.97616E-003	  8.44110E-003	
  1.30048E+001	  7.99011E-003	  8.99501E-003	  7.34323E-003	  9.75235E-003	  8.67832E-003	  7.30120E-003	  5.87055E-003	  7.61326E-003	  6.92556E-003	  9.01797E-003	  7.56454E-003	  8.10652E-003	  5.89194E-003	  8.17301E-003	
  1.46432E+001	  7.19787E-003	  7.69865E-003	  7.07244E-003	  9.23131E-003	  8.08212E-003	  5.33056E-003	  5.77215E-003	  6.63074E-003	  7.03097E-003	  7.23773E-003	  6.61721E-003	  7.39020E-003	  4.46064E-003	  7.04771E-003	
  1.62816E+001	  6.17653E-003	  7.08216E-003	  6.31541E-003	  6.78799E-003	  6.72756E-003	  5.13318E-003	  5.01286E-003	  5.87706E-003	  7.89063E-003	  8.15309E-003	  4.83738E-003	  4.75515E-003	  3.28871E-003	  6.33741E-003	
  1.79200E+001	  5.76306E-003	  7.13394E-003	  5.14938E-003	  4.25797E-003	  7.41041E-003	  6.79941E-003	  3.82725E-003	  5.63227E-003	  7.00242E-003	  6.81112E-003	  5.51595E-003	  4.04217E-003	  3.91456E-003	  6.50741E-003	
  1.95584E+001	  5.36732E-003	  5.47649E-003	  4.16921E-003	  4.62316E-003	  7.03046E-003	  6.15614E-003	  4.74850E-003	  5.36777E-003	  6.32376E-003	  5.03398E-003	  6.53985E-003	  3.76181E-003	  4.50578E-003	  6.04144E-003	
  2.11968E+001	  4.53943E-003	  4.68920E-003	  3.06337E-003	  4.48575E-003	  4.08733E-003	  6.14933E-003	  4.76157E-003	  4.58860E-003	  4.68247E-003	  3.54942E-003	  5.59146E-003	  2.79394E-003	  5.37224E-003	  5.54204E-003	
  2.28352E+001	  4.04322E-003	  3.80113E-003	  2.40760E-003	  3.95256E-003	  4.28972E-003	  4.49853E-003	  5.30977E-003	  3.74797E-003	  4.34877E-003	  2.91485E-003	  4.24555E-003	  2.87768E-003	  3.45189E-003	  4.64911E-003	
  2.44736E+001	  3.46101E-003	  2.10307E-003	  1.52003E-003	  5.58525E-003	  3.23283E-003	  2.06845E-003	  6.25645E-003	  3.13918E-003	  4.78836E-003	  2.00935E-003	  3.16819E-003	  2.72314E-003	  2.46504E-003	  3.68100E-003	
  2.61120E+001	  4.22614E-003	  3.59707E-003	  2.43502E-003	  5.13142E-003	  3.98700E-003	  3.28017E-003	  6.92617E-003	  2.93692E-003	  5.42134E-003	  2.26530E-003	  1.41888E-003	  2.82562E-003	  3.51087E-003	  2.17952E-003	
  2.93888E+001	  3.32427E-003	  3.28294E-003	  2.56071E-004	  5.43525E-003	  3.85559E-003	  2.72655E-003	  4.38924E-003	  3.92689E-003	  5.81493E-003	  3.01409E-003	  2.78362E-003	  2.62082E-003	  5.80434E-003	  3.52355E-003	
  3.26656E+001	  1.90923E-003	  1.86111E-003	  1.08077E-003	  3.38897E-003	  1.97441E-003	  1.24539E-003	  1.90473E-003	  2.89205E-003	  4.24317E-003	  2.78536E-003	  1.53453E-003	  1.39368E-003	  3.82996E-003	  3.56558E-003	
  3.59424E+001	  1.73259E-003	  1.63509E-003	  1.04198E-003	  3.39669E-003	  1.67377E-003	  1.79525E-003	  8.52765E-004	  2.84128E-003	  3.65920E-003	  4.18934E-003	  2.25052E-003	  1.80598E-003	  1.90596E-003	  3.23667E-003	
  3.92192E+001	  2.57013E-003	  3.29943E-003	 -9.89228E-004	  4.29516E-003	  2.16159E-003	  3.61470E-003	  3.03911E-003	  2.44010E-003	  3.22276E-003	  4.39071E-003	  1.42535E-003	  8.38190E-004	  1.31196E-003	  3.45166E-003	
  4.24960E+001	  2.68283E-003	  2.80851E-003	 -4.45880E-004	  4.79539E-003	  1.62101E-003	  2.93151E-003	  4.38642E-003	  2.27908E-003	  3.01766E-003	  1.98761E-003	 -1.52451E-004	  1.39191E-003	  3.67900E-003	  3.75076E-003	
  4.57728E+001	  2.00658E-003	  1.84045E-003	 -8.57288E-004	  4.21570E-003	  1.85730E-003	  1.80332E-003	  3.17997E-003	  1.54154E-003	  1.94471E-003	  1.95522E-003	  7.01709E-004	  1.63565E-003	  1.46374E-003	  1.54819E-003	
  4.90496E+001	  2.24077E-003	  2.60873E-003	 -3.68279E-004	  4.01266E-003	  2.60348E-003	  1.86414E-003	  2.72388E-003	  1.71285E-003	  3.88835E-003	  3.47825E-003	  1.40203E-003	  3.48287E-005	 -2.58623E-004	  1.73229E-003	
  5.23264E+001	  1.82615E-003	  2.73493E-003	  1.74761E-004	  2.52217E-003	  2.47170E-003	  6.91320E-005	  2.98424E-003	  1.85867E-003	  3.86376E-003	  1.93832E-003	  1.52814E-003	  6.62092E-004	 -4.90717E-005	  3.20875E-003	
  5.88800E+001	  1.71894E-003	  4.20351E-003	  9.45262E-004	  1.89056E-003	  7.16031E-004	  5.66538E-004	  1.99172E-003	  1.74101E-003	  3.75008E-003	 -5.20877E-004	  3.41824E-003	  2.16117E-003	  8.33207E-005	  1.55411E-003	
  6.54336E+001	  1.85501E-003	  3.68534E-003	 -9.15340E-004	  3.18752E-004	  3.49821E-003	  2.31849E-003	  2.22462E-003	  5.74291E-004	  1.15338E-003	 -9.92231E-004	  1.41797E-003	  1.89178E-003	  1.02443E-004	 -1.27590E-004	
  7.19872E+001	  1.33883E-003	  5.99814E-004	  1.42320E-004	  1.86827E-003	  1.95981E-003	  9.98504E-004	  2.46424E-003	  3.55083E-004	  1.29010E-003	  5.87890E-005	  1.23911E-003	 -1.16110E-004	  1.53400E-004	 -4.94788E-004	
  7.85408E+001	  1.48556E-003	  1.30391E-003	 -1.17823E-003	  3.08555E-003	  2.30769E-003	  9.50296E-004	  2.44416E-003	  6.06803E-004	  1.26544E-003	  8.42935E-004	  2.61300E-003	  3.56435E-004	 -1.75441E-005	 -1.41946E-003	
  8.50944E+001	  2.06752E-003	 -7.18911E-004	  3.65703E-004	  5.60603E-003	  9.38536E-004	  2.05076E-003	  4.16299E-003	  5.90114E-004	  1.08778E-003	  1.25116E-003	  2.09531E-003	  3.20665E-004	 -3.64147E-004	 -8.50080E-004	
  9.16480E+001	  2.04040E-003	  1.77324E-003	 -8.44208E-004	  3.89589E-003	  3.89446E-003	 -9.67290E-004	  4.49033E-003	 -1.44215E-004	 -2.33743E-003	 -7.01582E-005	  1.30072E-003	  4.06306E-004	 -3.34396E-004	  1.69667E-004	
  9.82016E+001	  1.57313E-003	  5.13737E-004	 -3.68463E-004	  2.69460E-003	  6.67932E-005	 -1.08341E-004	  6.64044E-003	  2.85735E-004	 -1.30287E-003	  1.30454E-003	  9.66641E-004	 -1.63390E-003	 -2.15284E-004	  2.59527E-003	
  1.04755E+002	  1.08247E-003	  4.18081E-004	 -5.75294E-004	  1.94160E-003	  2.85582E-004	 -6.75289E-004	  5.10016E-003	  4.86335E-004	 -2.94730E-004	  1.77198E-003	  1.13686E-003	 -8.69422E-004	 -1.35376E-003	  2.52708E-003	
  1.17862E+002	  1.02138E-003	  2.42388E-004	  1.60938E-003	  2.89825E-004	  2.53907E-004	  1.77120E-003	  1.96161E-003	 -4.47314E-005	 -9.12577E-004	 -7.26563E-005	 -2.39120E-004	 -4.78817E-004	 -1.63399E-003	  3.06877E-003	
  1.30970E+002	  1.05920E-003	 -3.47444E-004	  2.14742E-003	  6.40096E-004	 -1.41053E-003	  2.49056E-003	  2.83510E-003	  4.10623E-005	 -8.79602E-004	 -7.20689E-004	  3.49360E-007	 -7.05650E-004	 -5.98464E-004	  3.15043E-003	
  1.44077E+002	  5.88377E-004	 -3.96281E-004	  3.02507E-003	 -8.07206E-004	 -6.27579E-004	  5.10352E-004	  1.82591E-003	  2.06165E-004	 -1.19152E-003	  3.83329E-004	 -4.92019E-005	  7.89256E-004	 -2.76453E-004	  1.58158E-003	
  1.57184E+002	  2.46856E-004	 -8.81198E-004	  1.09312E-003	  1.93173E-004	 -1.02863E-005	  2.08246E-003	 -9.96130E-004	 -2.02587E-004	 -2.76783E-003	 -1.10812E-003	 -2.41613E-004	  1.50120E-004	 -7.66712E-005	  2.82858E-003	
  1.70291E+002	  5.66961E-004	  1.32960E-003	  2.15108E-005	 -1.47008E-003	  1.14565E-003	  2.73099E-004	  2.10198E-003	 -2.00856E-004	 -9.57128E-004	 -2.73940E-003	  1.18707E-003	  6.07151E-005	 -5.65152E-004	  1.80876E-003	
  1.83398E+002	  3.64812E-004	  1.66681E-003	 -1.04280E-003	 -1.37544E-003	  5.23836E-005	  1.11770E-003	  1.77021E-003	  2.88034E-004	 -6.73939E-004	 -2.47568E-005	 -1.75551E-004	  1.04289E-003	  7.06287E-004	  8.53270E-004	
  1.96506E+002	  9.22738E-004	  1.39421E-003	  8.82751E-004	 -7.31531E-004	  2.13017E-003	  1.17684E-004	  1.74314E-003	 -7.65439E-005	 -4.45498E-004	 -1.27549E-003	 -2.31010E-004	  2.24183E-003	 -7.98442E-004	  4.93477E-005	
  2.09613E+002	  1.40470E-004	  4.06235E-004	 -1.27584E-003	 -1.02789E-003	  1.76543E-003	  7.11516E-006	  9.67764E-004	 -3.27239E-004	 -3.87693E-004	 -1.09184E-003	  5.66961E-004	  2.84786E-004	 -7.76654E-005	 -1.25799E-003	
  2.35827E+002	  6.06681E-004	  3.45893E-004	 -2.28923E-003	  1.29834E-003	  2.34784E-003	  8.30282E-004	  1.10696E-003	  4.00722E-004	 -4.03227E-004	  2.25619E-003	  1.29397E-004	  5.43851E-004	 -5.52046E-004	  4.30163E-004	
  2.62042E+002	  4.98014E-004	  7.69099E-004	 -6.40037E-004	  1.18686E-003	  8.12432E-004	  2.29316E-004	  6.30415E-004	  8.20168E-004	  3.94783E-004	  1.19367E-003	  1.13012E-003	  1.36989E-003	  3.63312E-004	  4.69227E-004	
  2.88256E+002	  3.84089E-005	 -1.65645E-004	 -1.27722E-003	  2.36795E-003	 -1.34809E-003	  1.67200E-003	 -1.01855E-003	  1.22008E-004	  4.43873E-004	  2.46283E-005	  1.34795E-003	 -4.63768E-004	  2.68922E-004	 -8.89555E-004	
  3.14470E+002	 -1.92818E-004	 -1.42898E-004	 -1.83471E-003	  2.52582E-003	 -3.94528E-005	 -4.30631E-004	 -1.23503E-003	  2.65265E-004	  1.27942E-003	 -2.61501E-003	  2.03518E-003	  1.77380E-005	  1.11539E-003	 -2.41131E-004	
  3.40685E+002	 -4.41813E-004	 -6.39175E-004	 -2.28555E-004	 -9.51550E-004	  9.73126E-005	 -1.76913E-004	 -7.51998E-004	 -8.12118E-005	 -8.11096E-005	 -5.58798E-004	  1.49880E-003	  5.69638E-004	  4.59595E-004	 -2.37540E-003	
  3.66899E+002	 -2.60989E-004	 -1.41120E-004	  1.47551E-003	 -1.07529E-003	 -7.95698E-004	  3.79698E-004	 -1.40904E-003	  1.69307E-004	  3.51352E-004	 -5.65741E-004	 -3.77379E-005	  1.71791E-003	  6.80403E-004	 -1.13034E-003	
  3.93114E+002	  1.62720E-004	 -3.92814E-004	 -1.43838E-005	  1.27653E-003	  1.32383E-003	 -2.83715E-004	 -9.33125E-004	  4.99975E-004	  1.04767E-003	 -3.28893E-004	  8.81004E-004	  7.10879E-004	  9.83134E-004	 -2.93942E-004	
  4.19328E+002	 -2.01154E-004	 -8.00011E-004	  2.06679E-004	  4.66646E-004	  4.36974E-004	 -4.03920E-004	 -1.11329E-003	  6.84532E-004	  7.55661E-004	 -1.23286E-004	  1.29144E-003	  2.07969E-004	  1.51206E-003	  4.63344E-004	
  4.71757E+002	  4.55296E-004	 -1.68494E-004	  6.69726E-004	  5.51338E-004	  1.06304E-003	  9.68671E-004	 -3.52504E-004	  9.08207E-005	  7.67732E-004	  7.40489E-004	  8.26136E-004	 -6.94497E-004	  2.64025E-004	 -1.35896E-003	
  5.24186E+002	  2.00098E-004	  2.27204E-004	  1.28801E-003	  2.35396E-004	  9.21869E-004	 -3.74914E-004	 -1.09697E-003	  5.82040E-004	  1.11349E-003	 -4.26726E-005	  2.07641E-003	 -3.14368E-004	  7.78018E-005	  5.81581E-004	
  5.76614E+002	  4.51037E-004	  2.39522E-004	  2.17524E-004	  1.38347E-003	  7.89434E-004	  6.07072E-004	 -5.30804E-004	 -3.81399E-005	 -4.72777E-004	 -1.45501E-003	  1.16730E-003	 -3.66877E-006	  5.10032E-004	  2.52789E-005	
  6.29043E+002	 -4.59499E-004	 -1.32337E-003	  2.72445E-005	  1.00337E-004	 -3.43356E-004	 -4.71970E-004	 -7.45879E-004	  2.43938E-004	 -8.01721E-005	 -7.98150E-004	  1.18410E-003	 -2.88557E-004	  7.72407E-004	  6.74004E-004	
  6.81472E+002	 -5.43150E-004	 -6.46023E-005	 -8.03247E-004	 -7.72283E-005	 -6.72899E-004	 -1.12739E-003	 -5.13531E-004	 -6.10918E-004	 -1.30017E-004	 -1.72698E-003	 -3.34404E-004	 -1.06029E-003	  2.18850E-004	 -6.32669E-004	
  7.33901E+002	 -1.25694E-004	  1.41049E-004	 -1.43197E-004	 -4.19151E-004	 -2.48119E-004	  3.91882E-004	 -4.76627E-004	  2.14800E-005	  5.57147E-004	 -8.82130E-004	 -9.78952E-004	  5.44177E-004	  5.55586E-004	  3.33052E-004	
  7.86330E+002	 -5.15952E-004	 -2.54106E-004	  2.02667E-004	 -2.24593E-003	 -9.12161E-005	 -1.32804E-003	  6.20915E-004	  7.03287E-006	 -8.50081E-004	 -7.20182E-004	  4.07164E-004	  1.22654E-003	 -7.33347E-004	  7.12104E-004	
  8.38758E+002	  1.54290E-004	 -1.15587E-003	  1.66393E-004	 -8.89220E-004	  1.05878E-003	  5.77318E-004	  1.16834E-003	  8.91268E-005	 -5.28429E-004	 -4.33004E-004	  9.20363E-005	  1.17691E-003	 -4.02091E-004	  6.29334E-004	
  9.43616E+002	 -7.10957E-005	 -1.03116E-003	 -1.04044E-004	 -4.76755E-004	  1.95448E-003	 -3.58311E-004	 -4.10781E-004	  1.89353E-004	  2.89364E-004	  1.35692E-003	  2.80962E-004	 -4.94098E-005	 -3.59400E-004	 -3.82318E-004	
  1.04847E+003	 -5.35978E-004	 -1.35867E-004	 -9.41392E-004	 -9.40595E-004	  1.08342E-004	  1.49738E-004	 -1.45609E-003	 -8.59019E-005	  2.42010E-004	 -1.78963E-003	  2.50235E-004	  9.94673E-004	  6.42922E-005	 -2.76987E-004	
  1.15333E+003	 -6.03810E-004	 -9.03498E-004	  9.69898E-004	 -1.21400E-003	 -7.78277E-004	 -7.20282E-004	 -9.76703E-004	  1.96788E-004	 -2.13553E-004	 -7.50429E-005	  6.73103E-004	  2.44840E-004	  5.11308E-004	  4.00705E-005	
  1.25819E+003	 -4.86090E-004	 -7.74397E-004	 -6.70550E-006	 -7.35308E-005	 -4.29989E-004	 -1.09530E-003	 -5.36614E-004	  7.29186E-005	  3.61242E-004	  1.53130E-003	 -6.82838E-004	 -9.62795E-004	 -3.63443E-005	  2.26946E-004	
  1.36305E+003	 -1.99909E-004	  4.90840E-004	 -5.72172E-004	 -6.41352E-004	 -1.05327E-005	  6.48257E-004	 -1.11450E-003	  3.57300E-004	  5.42100E-004	  1.40317E-003	  2.12850E-004	  8.01761E-006	 -5.64790E-004	  5.42452E-004	
  1.46790E+003	 -1.84615E-004	 -7.00231E-005	 -1.74997E-004	 -2.12284E-004	  4.28198E-004	 -3.67428E-004	 -7.11157E-004	 -2.33753E-004	 -1.97237E-004	 -2.34773E-005	 -5.22772E-004	 -9.63097E-005	 -4.57333E-005	 -5.16990E-004	
  1.57276E+003	  3.01922E-004	  9.36704E-004	 -4.07077E-004	  3.53965E-004	  5.13052E-004	  6.84283E-004	 -2.69397E-004	 -2.99903E-004	 -6.03475E-004	  8.35599E-005	  4.84464E-005	 -6.55529E-004	  3.95498E-004	 -1.06792E-003	
  1.67762E+003	 -2.21382E-004	  2.43531E-004	  5.35032E-004	 -2.67810E-004	 -1.40834E-003	 -5.93557E-004	  1.62855E-004	 -4.05543E-004	 -7.02818E-004	 -2.90785E-004	  1.89574E-005	 -9.38841E-005	 -2.68320E-004	 -1.09641E-003	
  1.88733E+003	 -5.32126E-004	 -4.60782E-004	 -3.65165E-004	  6.11617E-004	 -9.43219E-004	 -9.83071E-004	 -1.05214E-003	 -4.61130E-004	 -5.10547E-004	 -2.84137E-004	  4.20434E-004	  3.28393E-004	 -1.14253E-003	 -1.57839E-003	
  2.09705E+003	 -4.61484E-004	 -6.36022E-004	 -4.98840E-004	  3.04838E-004	 -8.23754E-004	 -5.60736E-004	 -5.54389E-004	  1.50815E-004	 -8.11331E-004	  5.70095E-004	  2.63908E-004	  1.27040E-004	  6.01371E-004	  1.53811E-004	
  2.30676E+003	 -2.05776E-004	 -1.11058E-003	  4.87261E-004	 -3.63296E-004	  3.37373E-004	 -9.57091E-004	  3.71683E-004	 -1.61284E-004	 -9.53780E-004	  8.11252E-004	  2.12018E-004	  7.79396E-004	 -6.30253E-004	 -1.18634E-003	
  2.51648E+003	  1.00125E-004	 -1.57405E-004	 -3.30870E-004	 -5.74143E-004	  7.72761E-004	  8.92635E-004	 -2.22701E-006	 -1.54503E-004	  1.51226E-004	  1.40555E-004	 -1.10232E-003	 -1.83391E-004	 -4.32682E-004	  4.99593E-004	
  2.72620E+003	 -1.89858E-004	 -1.15858E-003	 -5.22521E-004	 -9.33061E-006	  3.94009E-004	  8.27950E-005	  7.44767E-005	 -8.10801E-005	 -6.29756E-004	  1.47036E-004	 -7.15701E-004	 -3.10177E-004	 -4.34524E-004	  1.45664E-003	
  2.93591E+003	  2.34860E-004	  1.74127E-004	  5.77038E-004	 -3.78007E-004	  3.77628E-004	  1.40748E-004	  5.17624E-004	 -5.11716E-004	 -1.56743E-004	 -2.51584E-004	 -1.43652E-003	  1.89236E-004	 -8.49626E-004	 -5.65061E-004	
  3.14563E+003	  1.72663E-004	  1.35683E-003	 -1.52103E-004	 -4.37590E-005	  6.43305E-004	 -1.43097E-003	  6.62672E-004	 -2.86550E-004	 -2.26856E-004	 -5.52030E-004	 -5.00960E-004	  8.48963E-005	  6.48199E-005	 -5.89167E-004	
  3.35534E+003	 -2.32878E-004	  6.06462E-004	 -3.57356E-004	 -3.31451E-004	  2.85318E-005	 -1.18218E-003	 -1.61274E-004	 -4.63365E-005	 -5.70958E-004	  3.46443E-004	 -4.96424E-006	 -3.08947E-004	 -3.91181E-004	  6.51588E-004	
  3.77477E+003	  4.69255E-004	  8.74171E-004	 -1.39056E-005	  1.96901E-004	  1.14397E-003	  4.51295E-004	  1.63103E-004	  4.00602E-004	  7.67643E-004	  9.67755E-005	  5.96882E-004	 -2.32970E-004	  3.28387E-004	  8.46895E-004	
  4.19420E+003	 -8.54863E-005	 -7.15791E-004	 -1.53151E-004	  3.52026E-004	 -8.99093E-004	  8.62099E-004	  4.09921E-005	 -4.71485E-005	  8.84310E-004	 -6.93068E-004	  2.68926E-004	 -2.73070E-004	  2.12751E-005	 -4.91265E-004	
  4.61363E+003	 -5.46976E-004	 -1.51314E-003	 -1.70499E-004	 -5.90239E-004	 -8.59765E-004	  2.05818E-004	 -3.54030E-004	 -4.72239E-005	 -3.59845E-004	  4.75520E-004	 -6.24951E-004	 -8.02442E-004	 -4.46748E-005	  1.07305E-003	
  5.03306E+003	  1.27412E-004	  7.62213E-005	  5.01686E-004	  5.24084E-004	 -5.84889E-004	  9.29308E-004	 -6.81936E-004	 -6.80164E-005	  3.78923E-004	  1.04585E-004	 -1.08969E-004	 -2.56428E-004	  1.32234E-004	 -6.58443E-004	
  5.45249E+003	  4.77106E-005	  1.00920E-003	  4.62540E-004	 -2.73661E-004	  7.24686E-005	  1.93898E-006	 -9.86218E-004	  2.37412E-004	  4.89232E-004	 -1.79909E-004	  1.37977E-003	 -4.39625E-004	 -7.12327E-005	  2.46237E-004	
  5.87192E+003	 -3.64431E-005	 -1.11502E-004	  4.14672E-004	 -3.41257E-004	 -2.37915E-004	 -9.53038E-004	  1.01038E-003	  1.42758E-004	 -7.91623E-004	  3.39436E-004	  1.45527E-003	  3.22745E-004	  9.20551E-005	 -5.61331E-004	
  6.29135E+003	  5.23023E-004	  7.09303E-004	  7.52067E-004	 -2.45275E-004	  1.50227E-003	 -7.18684E-004	  1.13845E-003	 -9.01125E-005	 -2.22732E-004	  6.58238E-005	  9.34504E-005	 -1.25437E-004	 -6.76423E-005	 -2.84137E-004	

"Count Rate"
       0.07813	     107.96156	     100.62449
       0.15625	     121.50494	     103.14299
       0.23438	      91.98962	     108.39844
       0.31250	      97.01378	      92.25946
       0.39063	     101.34406	     104.50504
       0.46875	     110.08173	     116.13384
       0.54688	     103.68267	     100.99712
       0.62500	     121.94182	     117.07186
       0.70313	      94.16119	      79.48705
       0.78125	      94.63662	      91.66838
       0.85938	     101.56250	     105.17322
       0.93750	     107.28053	     109.90183
       1.01563	      94.46957	     101.90944
       1.09375	      94.05839	     103.72122
       1.17188	      71.44326	      90.88456
       1.25000	      95.47184	      85.38497
       1.32813	     100.27755	      92.72204
       1.40625	     109.29790	     105.28886
       1.48438	      92.07957	      87.86493
       1.56250	     116.28804	     109.27221
       1.64063	     120.15574	     114.50195
       1.71875	     110.99404	     116.14669
       1.79688	     100.16190	     100.40604
       1.87500	     112.26614	     117.59869
       1.95313	      86.14310	     105.73859
       2.03125	      86.37438	      86.16879
       2.10938	      90.11359	      85.50062
       2.18750	      97.18082	     103.84972
       2.26563	     103.63127	      85.59057
       2.34375	      89.00854	     100.43175
       2.42188	      96.25565	      91.65553
       2.50000	     106.83080	     116.39083
       2.57813	      91.48849	      77.93226
       2.65625	     100.13621	      87.23531
       2.73438	      88.52026	      89.23982
       2.81250	      88.80294	      93.80140
       2.89063	     103.61842	     100.27755
       2.96875	     106.57381	      99.90491
       3.04688	     101.47256	     105.21176
       3.12500	      95.96012	      91.77118
       3.20313	      92.69634	     106.47102
       3.28125	     113.16561	     112.33039
       3.35938	     100.13621	     101.84519
       3.43750	      98.40153	      85.61626
       3.51563	     107.47327	      92.00247
       3.59375	     106.40677	      89.35547
       3.67188	      80.37366	      92.11812
       3.75000	     112.76727	      97.45066
       3.82813	      94.31538	      92.50360
       3.90625	     108.02580	      92.56785
       3.98438	     102.75751	      96.16571
       4.06250	     103.29719	     115.27293
       4.14063	     114.63046	     102.26923
       4.21875	      99.00545	      93.62151
       4.29688	     112.02200	     101.98653
       4.37500	     100.39320	      90.57617
       4.45313	      77.64957	      83.38045
       4.53125	      82.14690	     108.61688
       4.60938	     108.84818	     100.58594
       4.68750	     109.95323	      91.53989
       4.76563	      96.87243	     118.70374
       4.84375	      91.66838	      96.94953
       4.92188	      88.93143	      93.06898
       5.00000	      94.63662	      91.96392
       5.07813	      87.89063	      87.19675
       5.15625	      94.40533	     101.22842
       5.23438	     100.07196	      89.44542
       5.31250	      98.13168	     106.75370
       5.39063	     110.65995	     115.99250
       5.46875	     100.56024	      95.36904
       5.54688	     103.19439	      86.00175
       5.62500	      93.04328	      92.60640
       5.70313	      87.98058	      94.01984
       5.78125	     106.25257	      97.83614
       5.85938	     117.11040	     105.39165
       5.93750	     107.66602	     106.02128
       6.01563	     114.66900	      95.61318
       6.09375	     114.78465	      96.64114
       6.17188	      86.99117	      90.37058
       6.25000	      96.92383	      99.68648
       6.32813	      90.82031	      90.93596
       6.40625	      90.40913	      88.31466
       6.48438	      98.00319	      91.89967
       6.56250	      83.56034	     102.32063
       6.64063	     125.23129	      99.00545
       6.71875	     103.15584	     101.87089
       6.79688	     100.31610	     102.96310
       6.87500	      91.07731	     109.52920
       6.95313	      91.27005	      94.73942
       7.03125	      96.80818	      83.00781
       7.10938	     101.75525	      93.01758
       7.18750	     106.77940	      97.91325
       7.26563	     100.49599	      99.14680
       7.34375	      94.07124	      80.45076
       7.42188	     108.59119	     102.43627
       7.50000	     115.82545	     107.19059
       7.57813	     110.33871	      92.72204
       7.65625	     112.12479	      97.10372
       7.73438	     119.26913	      81.18318
       7.81250	     112.11195	      98.86411
       7.89063	     104.71063	     100.57309
       7.96875	     113.61534	     105.31456
       8.04688	     107.29338	      98.47862
       8.12500	     109.73479	     106.99784
       8.20313	      90.80746	      98.37582
       8.28125	     104.74918	      84.61401
       8.35938	      97.88754	      76.95570
       8.43750	      90.43483	      85.20508
       8.51563	      91.30859	      92.46505
       8.59375	      91.59129	      85.65482
       8.67188	      89.34262	     103.39998
       8.75000	      96.67969	     103.72122
       8.82813	     108.52693	      80.09097
       8.90625	     104.13240	      91.60413
       8.98438	      85.93750	      71.75165
       9.06250	      94.27683	      81.44018
       9.14063	      84.62685	      86.65707
       9.21875	      98.56857	      80.97759
       9.29688	     122.50720	     117.25175
       9.37500	     105.43021	      99.76357
       9.45313	      89.77950	     106.54811
       9.53125	     114.16787	     107.96156
       9.60938	      99.81497	      85.66766
       9.68750	     107.62747	      92.32371
       9.76563	      96.19141	     118.15121
       9.84375	      96.61544	     100.04626
       9.92188	      87.92918	     108.35989
      10.00000	      88.48170	     100.53455
      10.07813	     101.51111	      90.57617
      10.15625	     104.35085	     102.62901
      10.23438	      98.14453	      91.27005
      10.31250	     104.92908	      90.01080
      10.39063	     123.71505	     109.11801
      10.46875	     112.56168	      92.64494
      10.54688	     107.85876	     115.28577
      10.62500	     124.78156	     109.82474
      10.70313	     118.12552	     119.65461
      10.78125	      96.88528	     109.20796
      10.85938	     102.70611	     106.53526
      10.93750	     106.95930	      97.65625
      11.01563	      80.23232	      94.12263
      11.09375	      88.35321	      90.30634
      11.17188	      91.95107	      92.70919
      11.25000	      84.69110	      89.09848
      11.32813	      80.79770	      89.20128
      11.40625	     112.02200	     100.39320
      11.48438	      98.56857	      99.55798
      11.56250	     101.51111	      97.38641
      11.64063	      85.21793	      75.70930
      11.71875	      79.84683	      89.16273
      11.79688	      85.60342	      90.65327
      11.87500	      96.12716	      98.50432
      11.95313	     100.45744	      83.94583
      12.03125	     103.73407	      99.98201
      12.10938	      86.14310	      88.34036
      12.18750	      91.59129	      91.59129
      12.26563	      88.61020	      81.06754
      12.34375	     103.93966	     103.82401
      12.42188	     110.83984	      89.76665
      12.50000	      91.28290	      88.80294
      12.57813	     102.61617	      94.12263
      12.65625	     107.29338	      89.53536
      12.73438	      88.59735	      88.54595
      12.81250	     103.24579	      92.59354
      12.89063	     110.41581	      92.09241
      12.96875	     102.79606	      92.56785
      13.04688	     112.44604	     117.40594
      13.12500	     102.68041	     110.55716
      13.20313	      93.05613	      93.44161
      13.28125	     102.50052	      90.65327
      13.35938	      97.32217	     115.82545
      13.43750	     114.56620	      88.23756
      13.51563	     124.49887	     114.23212
      13.59375	     114.36061	      91.19295
      13.67188	     134.73993	      94.72656
      13.75000	     112.35609	     100.11051
      13.82813	     104.17095	      92.88908
      13.90625	     102.88600	      88.01912
      13.98438	     109.54205	      90.53763
      14.06250	     103.59273	      97.57915
      14.14063	      97.46351	      99.62223
      14.21875	     111.46947	     128.05818
      14.29688	      90.69182	     110.27447
      14.37500	     113.87233	     107.56322
      14.45313	     106.00843	     105.75144
      14.53125	     122.07031	     107.25484
      14.60938	     102.98880	      91.43709
      14.68750	     104.49219	     101.20271
      14.76563	      93.58296	     105.40450
      14.84375	      90.17784	      98.05459
      14.92188	      93.69860	      89.77950
      15.00000	     101.00997	      93.37737
      15.07813	      97.03947	      92.31086
      15.15625	     122.23736	     119.05068
      15.23438	     104.49219	     109.99178
      15.31250	     108.79678	      92.99188
      15.39063	     100.00771	     117.65009
      15.46875	      86.92692	      79.69264
      15.54688	      91.71978	      93.21032
      15.62500	      91.39854	     103.31004
      15.70313	     100.29041	      99.86637
      15.78125	      92.06672	      88.01912
      15.85938	     104.96762	      96.85958
      15.93750	     114.30921	      87.83923
      16.01563	     117.75288	      97.43781
      16.09375	     103.63127	      86.31013
      16.17188	     105.10896	     100.94572
      16.25000	      91.70693	      98.10599
      16.32813	      93.69860	      98.87695
      16.40625	     102.11503	      81.73571
      16.48438	     102.71896	      97.66911
      16.56250	     101.06137	      96.31990
      16.64063	      83.76594	      98.00319
      16.71875	     108.24425	      96.25565
      16.79688	     111.44377	     105.72575
      16.87500	     114.41201	     104.23520
      16.95313	     121.94182	     122.99548
      17.03125	     107.46043	     116.73777
      17.10938	      92.14381	     110.62141
      17.18750	      82.10835	     100.86863
      17.26563	      84.93524	      89.61246
      17.34375	     104.76203	     107.30623
      17.42188	      84.67825	      95.90872
      17.50000	      83.61174	      86.87552
      17.57813	     114.77180	      98.77416
      17.65625	      94.57237	      91.25719
      17.73438	     105.75144	     103.00165
      17.81250	     110.53146	     106.02128
      17.89063	      95.15060	     119.84735
      17.96875	      98.70992	      96.49979
      18.04688	      95.02210	      96.93668
      18.12500	     111.03259	      93.40307
      18.20313	     133.08234	      94.21259
      18.28125	     121.54349	     109.31075
      18.35938	     101.51111	      89.68956
      18.43750	     101.89659	     102.41057
      18.51563	     105.75144	      82.00555
      18.59375	     102.77036	      83.47040
      18.67188	      87.64648	      84.44696
      18.75000	      89.71526	      90.97451
      18.82813	      82.03125	     106.52242
      18.90625	      94.67516	      93.99414
      18.98438	      85.35928	      89.49682
      19.06250	      99.05685	      91.74548
      19.14063	      88.98283	      86.86266
      19.21875	     109.58060	     116.71207
      19.29688	     118.69090	     126.51624
      19.37500	      88.41746	      88.68729
      19.45313	     109.52920	      97.60485
      19.53125	     128.08388	     101.03568
      19.60938	     100.70158	      95.70313
      19.68750	      82.14690	      90.25494
      19.76563	      86.88837	     102.96310
