ALV-5000/E-WIN Data
Date :	"10-Jan-11"
Time :	"14:17:18"
Samplename : 	""
SampMemo(0) : 	""
SampMemo(1) : 	""
SampMemo(2) : 	""
SampMemo(3) : 	""
SampMemo(4) : 	""
SampMemo(5) : 	""
SampMemo(6) : 	""
SampMemo(7) : 	""
SampMemo(8) : 	""
SampMemo(9) : 	""
Temperature [K] :	     298.16000
Viscosity [cp]  :	       0.89000
Refractive Index:	       1.33200
Wavelength [nm] :	     632.80000
Angle [°]       :	      90.00000
Duration [s]    :	        30
Runs            :	         6
Mode            :	"SINGLE AUTO CH1"
MeanCR0 [kHz]   :	      38.35171
MeanCR1 [kHz]   :	       0.00000

"Correlation (Multi, Averaged)"
"Lag [ms]"	"Average"	" 1,  40.131"	" 2,  41.900"	" 3,  37.794"	" 4,  37.770"	" 5,  38.086"	" 6,  38.352"	
  2.00000E-004	  4.80890E-001	  6.19729E-001	  7.50760E-001	  3.87173E-001	  3.39251E-001	  3.61303E-001	  4.27124E-001	
  4.00000E-004	  2.56942E-001	  2.53893E-001	  1.99499E-001	  2.59165E-001	  2.60748E-001	  2.70673E-001	  2.97676E-001	
  6.00000E-004	  2.54929E-001	  2.63693E-001	  2.58030E-001	  2.44706E-001	  2.48390E-001	  2.66506E-001	  2.48249E-001	
  8.00000E-004	  2.53195E-001	  2.72659E-001	  2.90260E-001	  2.49291E-001	  2.35914E-001	  2.25763E-001	  2.45281E-001	
  1.00000E-003	  2.50478E-001	  3.00912E-001	  2.68741E-001	  2.25664E-001	  2.38974E-001	  2.20554E-001	  2.48020E-001	
  1.20000E-003	  2.51334E-001	  2.82250E-001	  2.55256E-001	  2.38946E-001	  2.37915E-001	  2.66390E-001	  2.27245E-001	
  1.40000E-003	  2.53902E-001	  2.66299E-001	  2.57647E-001	  2.45176E-001	  2.46742E-001	  2.57015E-001	  2.50532E-001	
  1.60000E-003	  2.40491E-001	  2.70782E-001	  2.61855E-001	  2.18846E-001	  2.32972E-001	  2.17776E-001	  2.40715E-001	
  1.80000E-003	  2.50484E-001	  2.75265E-001	  2.84809E-001	  2.25899E-001	  2.37327E-001	  2.42199E-001	  2.37404E-001	
  2.00000E-003	  2.38900E-001	  2.61399E-001	  2.60134E-001	  2.40239E-001	  2.21202E-001	  2.20786E-001	  2.29642E-001	
  2.20000E-003	  2.32228E-001	  2.42112E-001	  2.46075E-001	  2.24488E-001	  2.22497E-001	  2.29351E-001	  2.28843E-001	
  2.40000E-003	  2.26541E-001	  2.71408E-001	  2.19105E-001	  2.19551E-001	  2.08962E-001	  2.25531E-001	  2.14688E-001	
  2.60000E-003	  2.29490E-001	  2.37733E-001	  2.72567E-001	  2.03330E-001	  2.14729E-001	  2.19281E-001	  2.29299E-001	
  2.80000E-003	  2.24865E-001	  2.53059E-001	  2.27330E-001	  2.16377E-001	  2.18613E-001	  2.16272E-001	  2.17542E-001	
  3.00000E-003	  2.30724E-001	  2.90382E-001	  2.67020E-001	  2.07444E-001	  2.11081E-001	  2.03887E-001	  2.04528E-001	
  3.20000E-003	  2.27106E-001	  2.56705E-001	  2.58556E-001	  2.01682E-001	  2.23437E-001	  2.09793E-001	  2.12462E-001	
  3.60000E-003	  2.26547E-001	  2.43725E-001	  2.62334E-001	  2.16316E-001	  2.07312E-001	  2.12282E-001	  2.17313E-001	
  4.00000E-003	  2.21929E-001	  2.62909E-001	  2.42297E-001	  2.02152E-001	  1.99250E-001	  2.20326E-001	  2.04643E-001	
  4.40000E-003	  2.18109E-001	  2.48313E-001	  2.33451E-001	  2.15023E-001	  2.09254E-001	  2.00823E-001	  2.01789E-001	
  4.80000E-003	  2.13917E-001	  2.20633E-001	  2.57791E-001	  2.07853E-001	  1.99310E-001	  1.91389E-001	  2.06526E-001	
  5.20000E-003	  2.19196E-001	  2.37835E-001	  2.42202E-001	  2.01387E-001	  2.06195E-001	  2.13323E-001	  2.14231E-001	
  5.60000E-003	  2.11755E-001	  2.20528E-001	  2.36272E-001	  2.07206E-001	  2.00252E-001	  2.05684E-001	  2.00590E-001	
  6.00000E-003	  2.08252E-001	  2.21832E-001	  2.39763E-001	  1.97802E-001	  1.81774E-001	  2.10835E-001	  1.97508E-001	
  6.40000E-003	  2.07544E-001	  2.24306E-001	  2.35266E-001	  2.04064E-001	  1.79791E-001	  2.06183E-001	  1.95655E-001	
  7.20000E-003	  2.02247E-001	  2.17060E-001	  2.26754E-001	  1.89371E-001	  1.92031E-001	  1.98573E-001	  1.89691E-001	
  8.00000E-003	  2.00275E-001	  2.23732E-001	  2.21111E-001	  1.88431E-001	  1.90707E-001	  1.87548E-001	  1.90119E-001	
  8.80000E-003	  1.91801E-001	  2.12785E-001	  2.11787E-001	  1.80849E-001	  1.81733E-001	  1.83352E-001	  1.80302E-001	
  9.60000E-003	  1.91024E-001	  2.07390E-001	  2.18123E-001	  1.85609E-001	  1.81939E-001	  1.80516E-001	  1.72568E-001	
  1.04000E-002	  1.88822E-001	  2.05800E-001	  2.20059E-001	  1.73179E-001	  1.83116E-001	  1.78780E-001	  1.71997E-001	
  1.12000E-002	  1.85459E-001	  2.12186E-001	  2.14584E-001	  1.63539E-001	  1.68081E-001	  1.71778E-001	  1.82585E-001	
  1.20000E-002	  1.83458E-001	  1.95401E-001	  2.13126E-001	  1.67389E-001	  1.75937E-001	  1.68335E-001	  1.80559E-001	
  1.28000E-002	  1.79445E-001	  1.91882E-001	  2.05248E-001	  1.63397E-001	  1.71729E-001	  1.74178E-001	  1.70234E-001	
  1.44000E-002	  1.77445E-001	  1.94410E-001	  2.12923E-001	  1.59606E-001	  1.67168E-001	  1.66162E-001	  1.64398E-001	
  1.60000E-002	  1.72172E-001	  1.90149E-001	  2.05057E-001	  1.52509E-001	  1.62122E-001	  1.59825E-001	  1.63371E-001	
  1.76000E-002	  1.69310E-001	  1.86513E-001	  2.07042E-001	  1.57696E-001	  1.52412E-001	  1.51723E-001	  1.60474E-001	
  1.92000E-002	  1.58534E-001	  1.80075E-001	  1.90066E-001	  1.37507E-001	  1.51118E-001	  1.50015E-001	  1.42424E-001	
  2.08000E-002	  1.57840E-001	  1.75905E-001	  1.85296E-001	  1.47117E-001	  1.45821E-001	  1.49220E-001	  1.43679E-001	
  2.24000E-002	  1.51994E-001	  1.70288E-001	  1.85751E-001	  1.31865E-001	  1.45748E-001	  1.37630E-001	  1.40683E-001	
  2.40000E-002	  1.52626E-001	  1.74784E-001	  1.82701E-001	  1.36318E-001	  1.38245E-001	  1.42940E-001	  1.40768E-001	
  2.56000E-002	  1.46933E-001	  1.70437E-001	  1.80313E-001	  1.33569E-001	  1.30706E-001	  1.33963E-001	  1.32608E-001	
  2.88000E-002	  1.38681E-001	  1.58448E-001	  1.66828E-001	  1.24092E-001	  1.22777E-001	  1.28862E-001	  1.31082E-001	
  3.20000E-002	  1.33970E-001	  1.51320E-001	  1.64460E-001	  1.20212E-001	  1.27227E-001	  1.19523E-001	  1.21079E-001	
  3.52000E-002	  1.29340E-001	  1.45808E-001	  1.58471E-001	  1.17781E-001	  1.16164E-001	  1.18480E-001	  1.19339E-001	
  3.84000E-002	  1.23687E-001	  1.42759E-001	  1.54353E-001	  1.10103E-001	  1.12008E-001	  1.11050E-001	  1.11848E-001	
  4.16000E-002	  1.16880E-001	  1.32342E-001	  1.45369E-001	  1.05636E-001	  1.06521E-001	  1.05996E-001	  1.05419E-001	
  4.48000E-002	  1.15335E-001	  1.35131E-001	  1.44018E-001	  9.93621E-002	  1.05623E-001	  1.02950E-001	  1.04927E-001	
  4.80000E-002	  1.12266E-001	  1.27469E-001	  1.44131E-001	  1.01132E-001	  9.95987E-002	  9.98329E-002	  1.01431E-001	
  5.12000E-002	  1.08344E-001	  1.25365E-001	  1.36688E-001	  9.70928E-002	  9.61854E-002	  9.79998E-002	  9.67354E-002	
  5.76000E-002	  1.01666E-001	  1.18462E-001	  1.23977E-001	  9.12779E-002	  9.22243E-002	  8.94731E-002	  9.45844E-002	
  6.40000E-002	  9.58698E-002	  1.15425E-001	  1.23366E-001	  8.39900E-002	  8.22930E-002	  8.29648E-002	  8.71798E-002	
  7.04000E-002	  9.09648E-002	  1.12949E-001	  1.19146E-001	  7.55854E-002	  7.54374E-002	  8.13091E-002	  8.13617E-002	
  7.68000E-002	  8.60401E-002	  1.05664E-001	  1.12015E-001	  7.24630E-002	  7.38890E-002	  7.67623E-002	  7.54473E-002	
  8.32000E-002	  7.99027E-002	  9.54406E-002	  1.01466E-001	  6.62780E-002	  7.38964E-002	  7.25772E-002	  6.97585E-002	
  8.96000E-002	  7.80294E-002	  9.49607E-002	  1.01596E-001	  6.71376E-002	  7.04566E-002	  6.62688E-002	  6.77573E-002	
  9.60000E-002	  7.35421E-002	  8.60525E-002	  1.00152E-001	  6.49005E-002	  6.31174E-002	  6.28759E-002	  6.41544E-002	
  1.02400E-001	  7.18143E-002	  8.65379E-002	  9.71104E-002	  6.12420E-002	  6.32321E-002	  6.07601E-002	  6.20034E-002	
  1.15200E-001	  6.46336E-002	  8.02006E-002	  8.37679E-002	  5.66446E-002	  5.47920E-002	  5.65071E-002	  5.58892E-002	
  1.28000E-001	  6.10524E-002	  7.50475E-002	  7.89321E-002	  5.32485E-002	  5.19517E-002	  5.43702E-002	  5.27643E-002	
  1.40800E-001	  5.68399E-002	  7.09556E-002	  7.38931E-002	  4.96475E-002	  4.86268E-002	  5.07783E-002	  4.71379E-002	
  1.53600E-001	  5.29929E-002	  6.85864E-002	  7.00033E-002	  4.43632E-002	  4.49194E-002	  4.47149E-002	  4.53704E-002	
  1.66400E-001	  5.02895E-002	  6.37289E-002	  6.74584E-002	  4.27303E-002	  4.04884E-002	  4.41525E-002	  4.31783E-002	
  1.79200E-001	  4.63032E-002	  6.05247E-002	  6.23166E-002	  4.01956E-002	  3.85253E-002	  3.71848E-002	  3.90725E-002	
  1.92000E-001	  4.35682E-002	  5.71023E-002	  5.89566E-002	  3.58848E-002	  3.71010E-002	  3.52288E-002	  3.71355E-002	
  2.04800E-001	  4.19875E-002	  5.40411E-002	  5.76305E-002	  3.29672E-002	  3.44436E-002	  3.60330E-002	  3.68097E-002	
  2.30400E-001	  3.79416E-002	  5.25042E-002	  5.10934E-002	  2.91247E-002	  2.99640E-002	  3.32079E-002	  3.17550E-002	
  2.56000E-001	  3.64270E-002	  5.00387E-002	  4.99799E-002	  2.94039E-002	  2.81711E-002	  2.96602E-002	  3.13083E-002	
  2.81600E-001	  3.35145E-002	  4.74518E-002	  4.85098E-002	  2.53484E-002	  2.56260E-002	  2.66660E-002	  2.74852E-002	
  3.07200E-001	  3.11378E-002	  4.25551E-002	  4.55298E-002	  2.25355E-002	  2.45621E-002	  2.55003E-002	  2.61439E-002	
  3.32800E-001	  3.01822E-002	  4.29574E-002	  4.63518E-002	  2.13912E-002	  2.38965E-002	  2.30125E-002	  2.34837E-002	
  3.58400E-001	  2.86266E-002	  4.10817E-002	  4.61851E-002	  2.04187E-002	  2.19159E-002	  2.04569E-002	  2.17011E-002	
  3.84000E-001	  2.67390E-002	  4.00351E-002	  4.71193E-002	  1.80162E-002	  1.83355E-002	  1.72086E-002	  1.97195E-002	
  4.09600E-001	  2.67320E-002	  3.96610E-002	  5.01816E-002	  1.66868E-002	  1.71122E-002	  1.89216E-002	  1.78289E-002	
  4.60800E-001	  2.70427E-002	  4.19762E-002	  5.42291E-002	  1.58672E-002	  1.64023E-002	  1.74593E-002	  1.63218E-002	
  5.12000E-001	  2.58866E-002	  4.18533E-002	  5.49382E-002	  1.43975E-002	  1.49756E-002	  1.45170E-002	  1.46382E-002	
  5.63200E-001	  2.38531E-002	  3.99292E-002	  5.10132E-002	  1.28313E-002	  1.37288E-002	  1.32477E-002	  1.23682E-002	
  6.14400E-001	  2.13357E-002	  3.83252E-002	  4.42644E-002	  1.02706E-002	  1.08310E-002	  1.15132E-002	  1.28100E-002	
  6.65600E-001	  1.93364E-002	  3.38451E-002	  3.53633E-002	  9.89127E-003	  1.20599E-002	  1.15430E-002	  1.33161E-002	
  7.16800E-001	  1.74118E-002	  2.97619E-002	  3.17418E-002	  9.53776E-003	  1.13285E-002	  1.13278E-002	  1.07732E-002	
  7.68000E-001	  1.59637E-002	  2.79865E-002	  2.76585E-002	  9.01981E-003	  1.04187E-002	  1.01572E-002	  1.05414E-002	
  8.19200E-001	  1.55702E-002	  2.78947E-002	  2.81780E-002	  8.38764E-003	  9.46669E-003	  9.12436E-003	  1.03696E-002	
  9.21600E-001	  1.62624E-002	  3.03327E-002	  3.47832E-002	  8.18446E-003	  8.86877E-003	  7.14832E-003	  8.25712E-003	
  1.02400E+000	  1.75824E-002	  3.33804E-002	  4.32861E-002	  6.07344E-003	  7.72651E-003	  6.69855E-003	  8.32928E-003	
  1.12640E+000	  1.60647E-002	  3.26282E-002	  4.01806E-002	  5.24580E-003	  6.14141E-003	  5.62845E-003	  6.56371E-003	
  1.22880E+000	  1.33316E-002	  2.68604E-002	  2.99093E-002	  5.34511E-003	  6.02929E-003	  6.17895E-003	  5.66653E-003	
  1.33120E+000	  1.11737E-002	  2.35412E-002	  2.42807E-002	  4.45609E-003	  4.62155E-003	  4.81966E-003	  5.32297E-003	
  1.43360E+000	  1.24585E-002	  2.57453E-002	  2.89946E-002	  4.80535E-003	  5.47652E-003	  5.16150E-003	  4.56785E-003	
  1.53600E+000	  1.42951E-002	  3.14222E-002	  3.81431E-002	  3.67787E-003	  3.90592E-003	  4.00302E-003	  4.61870E-003	
  1.63840E+000	  1.34336E-002	  2.96070E-002	  3.44811E-002	  3.51435E-003	  4.49248E-003	  4.12386E-003	  4.38295E-003	
  1.84320E+000	  1.05462E-002	  2.44017E-002	  2.39237E-002	  3.74714E-003	  4.11463E-003	  3.14871E-003	  3.94143E-003	
  2.04800E+000	  1.22223E-002	  2.64036E-002	  3.40172E-002	  2.27021E-003	  3.97646E-003	  3.17893E-003	  3.48706E-003	
  2.25280E+000	  1.09482E-002	  2.56209E-002	  2.93355E-002	  1.64883E-003	  3.49550E-003	  2.97170E-003	  2.61648E-003	
  2.45760E+000	  9.92297E-003	  2.35414E-002	  2.58251E-002	  1.66611E-003	  3.65610E-003	  2.83724E-003	  2.01184E-003	
  2.66240E+000	  1.19936E-002	  2.77265E-002	  3.48686E-002	  1.96351E-003	  2.88008E-003	  2.51257E-003	  2.01030E-003	
  2.86720E+000	  9.09689E-003	  2.25545E-002	  2.34262E-002	  2.10047E-003	  2.40193E-003	  1.73487E-003	  2.36343E-003	
  3.07200E+000	  9.99060E-003	  2.48080E-002	  2.91884E-002	  1.60169E-003	  1.77546E-003	 -1.14134E-004	  2.68417E-003	
  3.22560E+000	  9.97213E-003	  2.41534E-002	  2.76783E-002	  2.47839E-003	  1.90853E-003	  1.02569E-003	  2.58854E-003	
  3.63520E+000	  9.77179E-003	  2.44917E-002	  2.75645E-002	  1.45601E-003	  1.83990E-003	  1.25424E-003	  2.02440E-003	
  4.04480E+000	  9.21340E-003	  2.31380E-002	  2.61413E-002	  1.12425E-003	  1.55262E-003	  1.67652E-003	  1.64761E-003	
  4.45440E+000	  9.26752E-003	  2.40026E-002	  2.66949E-002	  1.55598E-003	  9.56948E-004	  1.02997E-003	  1.36478E-003	
  4.86400E+000	  8.96164E-003	  2.46202E-002	  2.61590E-002	  1.33243E-004	  9.77405E-004	  5.58554E-004	  1.32145E-003	
  5.27360E+000	  9.26281E-003	  2.38804E-002	  2.74292E-002	  5.30701E-004	  1.38269E-003	  9.33686E-004	  1.42024E-003	
  5.68320E+000	  9.05071E-003	  2.42357E-002	  2.62335E-002	  1.11323E-003	  1.77698E-003	 -3.45017E-005	  9.79321E-004	
  6.09280E+000	  8.68234E-003	  2.29807E-002	  2.59245E-002	  5.70369E-004	  1.58104E-003	  1.33958E-004	  9.03486E-004	
  6.50240E+000	  8.46459E-003	  2.26961E-002	  2.61501E-002	  4.37413E-004	  1.22823E-003	 -2.53863E-005	  3.01139E-004	
  7.32160E+000	  8.29137E-003	  2.23894E-002	  2.65801E-002	  3.75366E-004	  3.71694E-004	 -5.81693E-004	  6.13409E-004	
  8.14080E+000	  8.20018E-003	  2.29696E-002	  2.60928E-002	  2.48257E-004	 -2.06885E-004	 -9.56368E-005	  1.92997E-004	
  8.96000E+000	  8.69729E-003	  2.36236E-002	  2.61753E-002	  8.97346E-004	  7.09875E-004	  2.47803E-004	  5.29816E-004	
  9.77920E+000	  8.54627E-003	  2.29579E-002	  2.55816E-002	  1.15758E-003	  7.96283E-004	  2.91089E-004	  4.93154E-004	
  1.05984E+001	  8.62864E-003	  2.23769E-002	  2.67657E-002	  7.04287E-004	  1.52023E-003	  6.98493E-004	 -2.93747E-004	
  1.14176E+001	  8.38043E-003	  2.16965E-002	  2.64288E-002	  4.78485E-004	  7.38061E-005	  1.14513E-003	  4.59892E-004	
  1.22368E+001	  8.28303E-003	  2.24697E-002	  2.64804E-002	  6.73101E-004	  2.81299E-004	  6.38849E-004	 -8.45128E-004	
  1.30560E+001	  8.32580E-003	  2.25957E-002	  2.61836E-002	  3.44951E-004	  2.56892E-004	  8.43030E-004	 -2.69319E-004	
  1.46944E+001	  8.42161E-003	  2.25976E-002	  2.63277E-002	  2.59502E-004	  1.01454E-004	  7.88967E-004	  4.54453E-004	
  1.63328E+001	  8.46355E-003	  2.28185E-002	  2.54457E-002	  8.96146E-004	  3.27001E-004	  1.94022E-004	  1.09999E-003	
  1.79712E+001	  8.35949E-003	  2.28254E-002	  2.58003E-002	  5.27757E-004	  5.11853E-004	  3.78012E-004	  1.13621E-004	
  1.96096E+001	  8.22961E-003	  2.24065E-002	  2.60368E-002	  7.41637E-004	  1.60528E-004	  3.91038E-004	 -3.58850E-004	
  2.12480E+001	  7.84543E-003	  2.23525E-002	  2.48173E-002	  5.10535E-004	  2.57445E-005	  2.15156E-004	 -8.48702E-004	
  2.28864E+001	  8.01464E-003	  2.24951E-002	  2.55482E-002	  6.06234E-005	 -7.82454E-005	  1.43230E-004	 -8.10229E-005	
  2.45248E+001	  7.86630E-003	  2.19475E-002	  2.48698E-002	  2.33746E-004	 -2.67411E-004	  6.96625E-004	 -2.82441E-004	
  2.61632E+001	  8.02318E-003	  2.17891E-002	  2.50609E-002	  4.73455E-004	  1.02940E-004	  3.87502E-004	  3.25188E-004	
  2.94400E+001	  7.95893E-003	  2.19838E-002	  2.52981E-002	  2.16277E-004	 -1.03365E-004	  2.36554E-004	  1.22294E-004	
  3.27168E+001	  7.87289E-003	  2.17799E-002	  2.51983E-002	  4.72605E-005	 -2.54138E-005	  3.07303E-004	 -7.00792E-005	
  3.59936E+001	  7.73882E-003	  2.13502E-002	  2.45682E-002	  3.71037E-004	  1.15520E-004	 -4.11240E-005	  6.91513E-005	
  3.92704E+001	  7.72892E-003	  2.14085E-002	  2.48168E-002	  7.45311E-005	 -2.88671E-005	  1.47922E-004	 -4.53640E-005	
  4.25472E+001	  7.60549E-003	  2.08992E-002	  2.47703E-002	 -2.11746E-004	 -5.74118E-006	  2.44128E-004	 -6.32976E-005	
  4.58240E+001	  7.63566E-003	  2.15538E-002	  2.44846E-002	  2.75748E-004	  2.19234E-004	 -5.90846E-004	 -1.28561E-004	
  4.91008E+001	  7.89275E-003	  2.18683E-002	  2.45425E-002	  1.42907E-004	  2.27225E-004	  2.67883E-004	  3.07591E-004	
  5.23776E+001	  7.70628E-003	  2.11682E-002	  2.40592E-002	  2.64172E-004	  1.55825E-004	  1.88764E-004	  4.01598E-004	
  5.89312E+001	  7.55728E-003	  2.06049E-002	  2.40278E-002	 -7.23344E-005	 -6.61949E-005	  4.35100E-004	  4.14366E-004	
  6.54848E+001	  7.42552E-003	  2.07976E-002	  2.32797E-002	 -1.22299E-004	  1.76582E-004	  2.89734E-004	  1.31802E-004	
  7.20384E+001	  7.46893E-003	  2.12909E-002	  2.34922E-002	 -5.10618E-005	 -1.15194E-005	  2.72782E-004	 -1.79738E-004	
  7.85920E+001	  7.44921E-003	  2.07597E-002	  2.35299E-002	 -1.47427E-004	 -2.42532E-005	  4.09009E-004	  1.68277E-004	
  8.51456E+001	  7.33394E-003	  2.09462E-002	  2.36595E-002	 -3.71805E-004	 -2.22791E-004	  5.78410E-005	 -6.53151E-005	
  9.16992E+001	  7.44177E-003	  2.07359E-002	  2.35478E-002	 -1.55154E-004	 -7.54870E-005	  4.64247E-004	  1.33299E-004	
  9.82528E+001	  7.27987E-003	  2.04268E-002	  2.31943E-002	 -3.13303E-004	  7.88897E-005	  1.71904E-004	  1.20624E-004	
  1.04806E+002	  7.29154E-003	  2.08080E-002	  2.29402E-002	  1.25002E-004	 -3.07332E-004	  1.13859E-004	  6.96018E-005	
  1.17914E+002	  7.19866E-003	  2.04717E-002	  2.23668E-002	 -1.13864E-004	 -2.44231E-005	  3.57915E-004	  1.33829E-004	
  1.31021E+002	  7.07462E-003	  2.08618E-002	  2.20059E-002	 -3.18230E-004	  8.86651E-005	 -2.70088E-005	 -1.63380E-004	
  1.44128E+002	  7.14362E-003	  2.11215E-002	  2.14941E-002	 -1.37807E-004	  5.68103E-005	  1.62717E-004	  1.64362E-004	
  1.57235E+002	  6.98260E-003	  2.06914E-002	  2.11507E-002	 -1.66797E-004	  7.57372E-005	  2.63961E-004	 -1.19443E-004	
  1.70342E+002	  6.97481E-003	  2.07230E-002	  2.10740E-002	  5.07319E-005	  5.76307E-005	  7.38116E-005	 -1.30314E-004	
  1.83450E+002	  6.87657E-003	  2.04734E-002	  2.07098E-002	  2.07941E-005	 -9.71176E-006	 -6.08329E-005	  1.25970E-004	
  1.96557E+002	  6.95721E-003	  2.10150E-002	  2.07210E-002	  3.63592E-005	 -5.38295E-005	  1.65840E-004	 -1.41116E-004	
  2.09664E+002	  6.79355E-003	  2.06663E-002	  2.01113E-002	 -1.34717E-004	 -1.12250E-005	 -7.92839E-005	  2.08944E-004	
  2.35878E+002	  6.70080E-003	  2.04553E-002	  1.98225E-002	 -7.44058E-005	 -9.33275E-005	  3.30316E-005	  6.17561E-005	
  2.62093E+002	  6.57643E-003	  2.01863E-002	  1.92968E-002	 -9.10506E-005	 -1.39450E-004	  1.59289E-004	  4.67433E-005	
  2.88307E+002	  6.61314E-003	  2.06328E-002	  1.88098E-002	  1.95605E-004	  2.26068E-004	 -3.40811E-005	 -1.51313E-004	
  3.14522E+002	  6.56759E-003	  2.04013E-002	  1.87278E-002	 -5.14562E-005	  2.41459E-004	  8.18055E-005	  4.59126E-006	
  3.40736E+002	  6.47643E-003	  2.03623E-002	  1.86199E-002	 -1.08415E-004	 -7.67812E-005	  5.53577E-005	  6.25706E-006	
  3.66950E+002	  6.50094E-003	  2.02849E-002	  1.82480E-002	  1.84277E-004	  1.44643E-004	  1.41089E-004	  2.70462E-006	
  3.93165E+002	  6.33798E-003	  1.98876E-002	  1.80479E-002	  4.63477E-005	 -7.26042E-005	  2.10611E-004	 -9.19412E-005	
  4.19379E+002	  6.22583E-003	  2.01510E-002	  1.68792E-002	  2.48054E-005	  9.12108E-005	  2.29385E-004	 -2.06846E-005	
  4.71808E+002	  6.09344E-003	  1.99584E-002	  1.63885E-002	  5.70842E-005	  6.90711E-005	  9.04925E-005	 -2.87422E-006	
  5.24237E+002	  5.81323E-003	  1.94267E-002	  1.55322E-002	 -3.82172E-005	 -1.35741E-004	  1.95918E-004	 -1.01492E-004	
  5.76666E+002	  5.66327E-003	  1.92996E-002	  1.43842E-002	  1.10667E-004	 -3.49968E-005	  1.78466E-004	  4.17034E-005	
  6.29094E+002	  5.48957E-003	  1.90236E-002	  1.38955E-002	 -6.89615E-005	  7.79345E-005	  1.04872E-004	 -9.54759E-005	
  6.81523E+002	  5.40909E-003	  1.88336E-002	  1.36776E-002	  1.47868E-006	 -2.02394E-004	  1.15529E-004	  2.87046E-005	
  7.33952E+002	  5.30705E-003	  1.86599E-002	  1.32290E-002	  5.36236E-005	 -1.64248E-004	  1.60342E-004	 -9.63987E-005	
  7.86381E+002	  5.30243E-003	  1.86657E-002	  1.28900E-002	  6.06173E-005	  3.96474E-005	  1.00750E-004	  5.78545E-005	
  8.38810E+002	  4.71364E-003	  1.71286E-002	  1.09832E-002	  1.75356E-004	 -1.01709E-006	  6.51598E-005	 -6.94732E-005	
  9.43667E+002	  4.61516E-003	  1.65106E-002	  1.08498E-002	  1.15369E-004	  3.59771E-005	  1.23381E-004	  5.58959E-005	
  1.04852E+003	  4.46124E-003	  1.60325E-002	  1.08393E-002	  7.97897E-006	 -5.18019E-006	  3.49933E-005	 -1.42074E-004	
  1.15338E+003	  4.31897E-003	  1.52832E-002	  1.04223E-002	  1.25667E-005	  7.67780E-006	  5.39101E-005	  1.34163E-004	
  1.25824E+003	  4.09661E-003	  1.47274E-002	  9.80098E-003	  8.52258E-005	  3.58482E-005	 -4.06842E-008	 -6.97157E-005	
  1.36310E+003	  3.80496E-003	  1.37060E-002	  8.80611E-003	  4.87771E-005	  8.03871E-005	  1.36766E-004	  5.16458E-005	
  1.46796E+003	  3.49919E-003	  1.24892E-002	  8.65882E-003	 -9.55378E-005	 -9.53063E-005	  8.36241E-005	 -4.56355E-005	
  1.57281E+003	  3.43292E-003	  1.19525E-002	  8.57155E-003	  6.44921E-005	  7.87519E-005	 -5.45502E-005	 -1.52416E-005	
  1.67767E+003	  2.70248E-003	  5.98283E-003	  1.00616E-002	  7.09753E-005	  7.10310E-005	  5.93586E-005	 -3.08970E-005	
  1.88739E+003	  2.21001E-003	  4.89855E-003	  8.37734E-003	  2.50722E-005	 -5.53864E-006	  2.42945E-005	 -5.96378E-005	
  2.09710E+003	  2.00003E-003	  4.59419E-003	  7.33025E-003	  5.31069E-005	  3.25402E-005	  4.22436E-005	 -5.21574E-005	
  2.30682E+003	  1.45541E-003	  3.47454E-003	  5.39721E-003	 -3.56383E-005	 -4.53966E-005	  1.04747E-005	 -6.86990E-005	
  2.51653E+003	  1.06372E-003	  2.46198E-003	  3.93962E-003	 -1.42482E-005	 -3.41881E-005	  2.16103E-005	  7.56432E-006	
  2.72625E+003	  8.84624E-004	  1.91193E-003	  3.45128E-003	 -9.10907E-006	 -2.75963E-005	 -4.77710E-005	  2.90121E-005	
  2.93596E+003	  7.91407E-004	  1.37240E-003	  3.27213E-003	  8.03833E-005	  4.47204E-005	  7.88911E-006	 -2.90772E-005	
  3.14568E+003	  6.82796E-004	  1.12497E-003	  3.07742E-003	 -8.94866E-005	  2.90479E-005	 -4.64225E-005	  1.23960E-006	
  3.35539E+003	  5.03103E-004	  4.55459E-004	  2.63118E-003	 -5.45867E-005	  1.33747E-005	 -3.66091E-005	  9.80339E-006	
  3.77482E+003	 -2.04714E-004	  3.40737E-004	 -1.52373E-003	 -4.41886E-005	  4.02111E-005	 -3.05591E-005	 -1.07574E-005	
  4.19425E+003	 -4.27870E-004	  3.13498E-004	 -2.71671E-003	 -4.33268E-005	 -9.54485E-006	 -9.53467E-005	 -1.57957E-005	
  4.61368E+003	 -3.73207E-004	  2.34331E-004	 -2.32304E-003	 -3.20823E-005	 -5.98717E-005	 -8.52685E-005	  2.66829E-005	
  5.03311E+003	 -2.51144E-004	  1.91156E-004	 -1.60628E-003	 -4.30740E-005	 -1.26426E-005	 -4.94018E-005	  1.33803E-005	
  5.45254E+003	 -9.31579E-005	  1.68270E-004	 -6.25847E-004	 -2.83201E-005	  2.22650E-005	 -6.66048E-005	 -2.87098E-005	
  5.87197E+003	  1.91560E-004	 -5.28795E-005	  1.28446E-003	 -5.24514E-005	 -2.28470E-005	 -4.16021E-005	  3.46834E-005	
  6.29140E+003	  7.00384E-004	 -3.24235E-005	  4.33844E-003	 -1.07293E-005	 -4.23819E-005	 -4.82880E-005	 -2.31095E-006	

"Count Rate"
       0.11719	      37.35522
       0.23438	      39.83931
       0.35156	      39.99297
       0.46875	      39.07104
       0.58594	      39.64297
       0.70313	      36.07476
       0.82031	      37.24425
       0.93750	      37.41498
       1.05469	      37.04791
       1.17188	      39.28445
       1.28906	      39.83931
       1.40625	      37.81619
       1.52344	      35.48575
       1.64063	      37.10767
       1.75781	      38.83202
       1.87500	      39.97589
       1.99219	      37.06499
       2.10938	      38.84909
       2.22656	      38.94299
       2.34375	      38.60154
       2.46094	      37.85887
       2.57813	      37.54302
       2.69531	      37.61131
       2.81250	      36.91133
       2.92969	      38.92592
       3.04688	      40.31735
       3.16406	      41.18806
       3.28125	      36.55280
       3.39844	      40.25760
       3.51563	      36.82597
       3.63281	      39.82224
       3.75000	      37.45766
       3.86719	      37.92716
       3.98438	      38.93445
       4.10156	      37.72229
       4.21875	      37.22718
       4.33594	      38.15764
       4.45313	      39.99297
       4.57031	      37.98692
       4.68750	      37.31254
       4.80469	      39.01128
       4.92188	      35.81867
       5.03906	      35.31503
       5.15625	      38.30276
       5.27344	      38.03813
       5.39063	      35.22966
       5.50781	      38.36251
       5.62500	      40.53076
       5.74219	      37.15035
       5.85938	      39.90760
       5.97656	      38.79787
       6.09375	      39.48078
       6.21094	      38.29422
       6.32813	      38.51617
       6.44531	      38.89177
       6.56250	      40.71002
       6.67969	      35.78453
       6.79688	      37.34669
       6.91406	      36.27964
       7.03125	      39.07957
       7.14844	      40.64173
       7.26563	      37.38937
       7.38281	      37.39790
       7.50000	      37.43205
       7.61719	      35.77599
       7.73438	      39.49786
       7.85156	      38.71251
       7.96875	      39.21616
       8.08594	      40.05272
       8.20313	      38.18325
       8.32031	      38.31984
       8.43750	      35.93818
       8.55469	      35.05040
       8.67188	      37.68814
       8.78906	      36.91987
       8.90625	      39.50639
       9.02344	      38.31130
       9.14063	      38.77226
       9.25781	      40.13808
       9.37500	      38.55032
       9.49219	      36.76621
       9.60938	      39.74541
       9.72656	      37.14181
       9.84375	      39.00275
       9.96094	      37.50888
      10.07813	      39.59175
      10.19531	      36.99669
      10.31250	      39.28445
      10.42969	      40.12101
      10.54688	      39.86492
      10.66406	      39.61736
      10.78125	      40.65880
      10.89844	      38.65275
      11.01563	      39.86492
      11.13281	      35.92111
      11.25000	      38.43081
      11.36719	      38.32837
      11.48438	      37.67960
      11.60156	      37.55156
      11.71875	      37.90155
      11.83594	      39.31859
      11.95313	      40.19784
      12.07031	      37.93570
      12.18750	      39.28445
      12.30469	      38.49910
      12.42188	      38.05521
      12.53906	      36.62109
      12.65625	      38.60154
      12.77344	      38.82348
      12.89063	      39.06250
      13.00781	      39.92467
      13.12500	      36.48451
      13.24219	      38.29422
      13.35938	      36.83450
      13.47656	      39.83077
      13.59375	      38.69543
      13.71094	      37.82472
      13.82813	      36.93694
      13.94531	      37.03084
      14.06250	      38.91738
      14.17969	      37.44912
      14.29688	      37.95277
      14.41406	      38.08081
      14.53125	      36.95401
      14.64844	      38.01252
      14.76563	      38.63568
      14.88281	      38.87470
      15.00000	      39.23323
      15.11719	      38.89177
      15.23438	      37.84180
      15.35156	      37.72229
      15.46875	      39.87346
      15.58594	      40.91489
      15.70313	      40.22345
      15.82031	      39.19908
      15.93750	      39.96736
      16.05469	      42.14413
      16.17188	      37.70522
      16.28906	      37.60278
      16.40625	      38.71251
      16.52344	      37.44912
      16.64063	      39.25883
      16.75781	      38.36251
      16.87500	      39.19054
      16.99219	      37.81619
      17.10938	      38.61861
      17.22656	      37.70522
      17.34375	      36.68085
      17.46094	      37.79911
      17.57813	      40.18930
      17.69531	      37.81619
      17.81250	      40.11248
      17.92969	      36.73207
      18.04688	      39.89907
      18.16406	      38.42227
      18.28125	      36.88572
      18.39844	      38.17472
      18.51563	      37.19303
      18.63281	      37.27840
      18.75000	      40.06126
      18.86719	      36.10891
      18.98438	      39.31859
      19.10156	      40.17223
      19.21875	      38.84909
      19.33594	      37.07352
      19.45313	      38.09789
      19.57031	      39.10518
      19.68750	      39.65151
      19.80469	      38.85763
      19.92188	      36.74060
      20.03906	      36.86865
      20.15625	      37.94423
      20.27344	      39.74541
      20.39063	      38.78080
      20.50781	      37.96131
      20.62500	      37.97838
      20.74219	      37.86740
      20.85938	      38.33691
      20.97656	      38.96860
      21.09375	      39.88199
      21.21094	      37.96984
      21.32813	      38.23447
      21.44531	      38.37105
      21.56250	      36.04916
      21.67969	      39.95028
      21.79688	      35.86135
      21.91406	      37.61985
      22.03125	      38.95153
      22.14844	      39.36981
      22.26563	      38.70397
      22.38281	      36.67231
      22.50000	      37.11620
      22.61719	      38.37105
      22.73438	      37.98692
      22.85156	      36.61256
      22.96875	      37.22718
      23.08594	      39.83931
      23.20313	      38.20886
      23.32031	      37.15889
      23.43750	      40.65027
      23.55469	      39.43810
      23.67188	      39.25030
      23.78906	      38.49910
      23.90625	      39.42957
      24.02344	      39.22469
      24.14063	      38.48203
      24.25781	      38.55885
      24.37500	      39.40395
      24.49219	      38.33691
      24.60938	      39.07957
      24.72656	      40.02711
      24.84375	      38.53325
      24.96094	      38.02960
      25.07813	      38.20886
      25.19531	      37.73936
      25.31250	      38.86616
      25.42969	      37.26132
      25.54688	      38.55885
      25.66406	      36.64670
      25.78125	      39.28445
      25.89844	      37.91009
      26.01563	      39.13933
      26.13281	      37.82472
      26.25000	      38.85763
      26.36719	      39.14786
      26.48438	      38.88324
      26.60156	      38.32837
      26.71875	      38.99421
      26.83594	      38.33691
      26.95313	      37.25278
      27.07031	      37.59424
      27.18750	      38.22593
      27.30469	      39.76248
      27.42188	      37.26132
      27.53906	      39.04543
      27.65625	      37.36376
      27.77344	      37.15889
      27.89063	      38.74665
      28.00781	      39.65151
      28.12500	      37.47473
      28.24219	      39.06250
      28.35938	      37.41498
      28.47656	      38.64422
      28.59375	      38.61861
      28.71094	      37.74789
      28.82813	      37.78204
      28.94531	      38.94299
      29.06250	      38.72958
      29.17969	      38.39666
      29.29688	      39.58322
      29.41406	      39.91614
      29.53125	      35.71624
      29.64844	      37.68814
      29.76563	      37.77351
      29.88281	      39.40395
