ALV-5000/E-WIN Data
Date :	"10-Jan-11"
Time :	"15:19:45"
Samplename : 	""
SampMemo(0) : 	""
SampMemo(1) : 	""
SampMemo(2) : 	""
SampMemo(3) : 	""
SampMemo(4) : 	""
SampMemo(5) : 	""
SampMemo(6) : 	""
SampMemo(7) : 	""
SampMemo(8) : 	""
SampMemo(9) : 	""
Temperature [K] :	     298.16000
Viscosity [cp]  :	       0.89000
Refractive Index:	       1.33200
Wavelength [nm] :	     632.80000
Angle [°]       :	      90.00000
Duration [s]    :	        30
Runs            :	         6
Mode            :	"SINGLE CROSS CH0"
MeanCR0 [kHz]   :	      13.46968
MeanCR1 [kHz]   :	      63.82358

"Correlation (Multi, Averaged)"
"Lag [ms]"	"Average"	" 1,  13.463"	" 2,  13.727"	" 3,  13.476"	" 4,  13.510"	" 5,  13.687"	" 6,  13.470"	
  2.00000E-004	  1.00925E-001	  1.21083E-001	  6.48287E-002	  9.40522E-002	  9.60269E-002	  1.17690E-001	  1.11872E-001	
  4.00000E-004	  7.55876E-002	  8.40766E-002	  5.77907E-002	  8.85236E-002	  8.68395E-002	  5.78207E-002	  7.84744E-002	
  6.00000E-004	  1.00709E-001	  1.22864E-001	  8.76546E-002	  1.08861E-001	  9.28993E-002	  8.90901E-002	  1.02888E-001	
  8.00000E-004	  9.60023E-002	  8.84303E-002	  1.00399E-001	  9.12879E-002	  1.23784E-001	  8.68021E-002	  8.53101E-002	
  1.00000E-003	  1.02785E-001	  1.01887E-001	  1.31785E-001	  9.32624E-002	  1.02478E-001	  9.69075E-002	  9.03880E-002	
  1.20000E-003	  9.01812E-002	  8.94198E-002	  9.27905E-002	  8.43773E-002	  8.44939E-002	  8.18448E-002	  1.08161E-001	
  1.40000E-003	  9.51410E-002	  8.48681E-002	  7.98558E-002	  9.81985E-002	  1.04041E-001	  8.94715E-002	  1.14411E-001	
  1.60000E-003	  9.07383E-002	  9.08050E-002	  8.17579E-002	  8.39824E-002	  9.64178E-002	  9.40475E-002	  9.74190E-002	
  1.80000E-003	  9.73171E-002	  1.31176E-001	  7.03450E-002	  8.63517E-002	  1.11274E-001	  8.88995E-002	  9.58566E-002	
  2.00000E-003	  8.72474E-002	  1.00106E-001	  9.50731E-002	  7.09509E-002	  8.35165E-002	  9.61448E-002	  7.76932E-002	
  2.20000E-003	  9.43638E-002	  7.55670E-002	  1.00589E-001	  1.14587E-001	  1.14401E-001	  6.02994E-002	  1.00739E-001	
  2.40000E-003	  9.59675E-002	  9.95125E-002	  9.37415E-002	  1.01358E-001	  1.02282E-001	  9.63355E-002	  8.25758E-002	
  2.60000E-003	  9.48477E-002	  1.10595E-001	  8.59427E-002	  6.14734E-002	  8.62531E-002	  1.03771E-001	  1.21051E-001	
  2.80000E-003	  9.65379E-002	  1.04262E-001	  8.36601E-002	  1.12810E-001	  1.02478E-001	  8.68021E-002	  8.92162E-002	
  3.00000E-003	  1.05677E-001	  1.24250E-001	  9.54535E-002	  1.01950E-001	  1.01305E-001	  1.13686E-001	  9.74190E-002	
  3.20000E-003	  9.85118E-002	  9.61476E-002	  1.00873E-001	  9.32618E-002	  9.74918E-002	  1.01580E-001	  1.01717E-001	
  3.60000E-003	  9.36650E-002	  9.23876E-002	  9.45958E-002	  9.44465E-002	  9.72963E-002	  9.41439E-002	  8.91197E-002	
  4.00000E-003	  9.62234E-002	  9.86214E-002	  1.13617E-001	  9.07937E-002	  9.77850E-002	  9.02353E-002	  8.62878E-002	
  4.40000E-003	  8.65704E-002	  8.05138E-002	  8.34682E-002	  7.71699E-002	  9.97397E-002	  7.59352E-002	  1.02596E-001	
  4.80000E-003	  9.96339E-002	  9.82256E-002	  9.94463E-002	  9.33605E-002	  1.05897E-001	  1.00817E-001	  1.00057E-001	
  5.20000E-003	  9.45150E-002	  9.39708E-002	  9.45958E-002	  1.02443E-001	  7.06140E-002	  1.04726E-001	  1.00740E-001	
  5.60000E-003	  9.87182E-002	  9.31792E-002	  9.59273E-002	  9.48414E-002	  1.02379E-001	  1.03582E-001	  1.02400E-001	
  6.00000E-003	  8.93103E-002	  9.30803E-002	  7.46232E-002	  9.35579E-002	  7.76511E-002	  9.75760E-002	  9.93732E-002	
  6.40000E-003	  9.49289E-002	  9.87776E-002	  9.58819E-002	  8.62036E-002	  8.05924E-002	  1.06010E-001	  1.02108E-001	
  7.20000E-003	  9.44818E-002	  1.06944E-001	  8.79879E-002	  8.75364E-002	  1.03268E-001	  8.63714E-002	  9.47836E-002	
  8.00000E-003	  9.59342E-002	  1.08923E-001	  1.02397E-001	  9.85934E-002	  8.09834E-002	  9.08044E-002	  9.39047E-002	
  8.80000E-003	  9.29671E-002	  9.53171E-002	  8.74648E-002	  9.23738E-002	  1.01997E-001	  9.30924E-002	  8.75573E-002	
  9.60000E-003	  9.80496E-002	  1.02639E-001	  9.71658E-002	  9.10411E-002	  1.00775E-001	  1.02673E-001	  9.40023E-002	
  1.04000E-002	  9.21105E-002	  7.97821E-002	  1.07390E-001	  9.01032E-002	  8.27427E-002	  9.57618E-002	  9.68831E-002	
  1.12000E-002	  1.00614E-001	  1.00413E-001	  9.35993E-002	  1.03579E-001	  1.06346E-001	  9.90031E-002	  1.00740E-001	
  1.20000E-002	  9.72472E-002	  1.10110E-001	  9.56916E-002	  8.77832E-002	  9.26142E-002	  1.07774E-001	  8.95103E-002	
  1.28000E-002	  9.11038E-002	  9.62577E-002	  8.42725E-002	  9.19269E-002	  8.62595E-002	  9.28812E-002	  9.50250E-002	
  1.44000E-002	  9.44882E-002	  9.83357E-002	  9.12391E-002	  9.66162E-002	  9.01446E-002	  9.38107E-002	  9.67827E-002	
  1.60000E-002	  9.31245E-002	  9.65793E-002	  9.60182E-002	  8.64477E-002	  1.00383E-001	  8.55881E-002	  9.37311E-002	
  1.76000E-002	  9.27399E-002	  8.90344E-002	  9.65413E-002	  8.62750E-002	  9.97229E-002	  8.94015E-002	  9.54644E-002	
  1.92000E-002	  9.06705E-002	  9.43777E-002	  8.96223E-002	  8.97796E-002	  9.21727E-002	  8.17033E-002	  9.63677E-002	
  2.08000E-002	  9.14864E-002	  8.76491E-002	  9.70406E-002	  9.11124E-002	  8.71880E-002	  9.07812E-002	  9.51470E-002	
  2.24000E-002	  9.31852E-002	  9.30419E-002	  9.89190E-002	  9.28401E-002	  8.43047E-002	  9.67872E-002	  9.32184E-002	
  2.40000E-002	  9.50242E-002	  1.02195E-001	  9.83959E-002	  9.09150E-002	  1.02460E-001	  8.10333E-002	  9.51470E-002	
  2.56000E-002	  9.11342E-002	  9.25939E-002	  8.89551E-002	  9.53918E-002	  9.36286E-002	  8.63348E-002	  8.99010E-002	
  2.88000E-002	  9.15298E-002	  9.08128E-002	  9.19391E-002	  8.56306E-002	  9.09286E-002	  9.25792E-002	  9.72886E-002	
  3.20000E-002	  9.03368E-002	  8.92393E-002	  9.41265E-002	  8.58650E-002	  9.34820E-002	  8.66088E-002	  9.26990E-002	
  3.52000E-002	  9.05682E-002	  9.21583E-002	  8.46396E-002	  9.20105E-002	  9.52535E-002	  8.85036E-002	  9.08436E-002	
  3.84000E-002	  8.95607E-002	  9.21212E-002	  9.27831E-002	  7.94851E-002	  9.64386E-002	  8.75238E-002	  8.90126E-002	
  4.16000E-002	  8.79898E-002	  9.14506E-002	  8.79327E-002	  9.00608E-002	  8.78132E-002	  8.33291E-002	  8.73525E-002	
  4.48000E-002	  8.97068E-002	  8.85810E-002	  9.30328E-002	  8.03119E-002	  9.32866E-002	  9.36252E-002	  8.94032E-002	
  4.80000E-002	  8.85044E-002	  9.24648E-002	  8.70649E-002	  8.39770E-002	  9.10481E-002	  8.56767E-002	  9.07947E-002	
  5.12000E-002	  8.98730E-002	  9.00237E-002	  8.94497E-002	  8.68438E-002	  8.77582E-002	  9.22073E-002	  9.29552E-002	
  5.76000E-002	  8.88287E-002	  8.65109E-002	  9.32334E-002	  8.78373E-002	  8.49605E-002	  8.80423E-002	  9.23876E-002	
  6.40000E-002	  8.58575E-002	  8.47050E-002	  8.35683E-002	  8.26172E-002	  8.91998E-002	  8.62131E-002	  8.88417E-002	
  7.04000E-002	  8.40794E-002	  8.66717E-002	  8.14938E-002	  8.66773E-002	  8.25660E-002	  7.92331E-002	  8.78346E-002	
  7.68000E-002	  8.60868E-002	  8.75808E-002	  8.54169E-002	  8.42029E-002	  8.80786E-002	  8.75570E-002	  8.36845E-002	
  8.32000E-002	  8.64870E-002	  8.82796E-002	  8.49744E-002	  8.67108E-002	  8.27336E-002	  9.17398E-002	  8.44840E-002	
  8.96000E-002	  8.16057E-002	  8.26888E-002	  8.29237E-002	  8.00098E-002	  8.22388E-002	  7.91199E-002	  8.26530E-002	
  9.60000E-002	  8.18502E-002	  8.00666E-002	  8.07065E-002	  8.37058E-002	  8.26420E-002	  8.29750E-002	  8.10052E-002	
  1.02400E-001	  8.07760E-002	  8.18544E-002	  8.07494E-002	  7.91245E-002	  7.99137E-002	  8.37354E-002	  7.92789E-002	
  1.15200E-001	  8.00409E-002	  7.96708E-002	  7.80954E-002	  7.98896E-002	  8.08727E-002	  8.16049E-002	  8.01120E-002	
  1.28000E-001	  7.87857E-002	  8.08428E-002	  7.73702E-002	  7.79494E-002	  8.01641E-002	  7.79206E-002	  7.84672E-002	
  1.40800E-001	  7.90934E-002	  7.61643E-002	  7.72276E-002	  8.06028E-002	  7.93823E-002	  8.12484E-002	  7.99350E-002	
  1.53600E-001	  7.72244E-002	  7.75611E-002	  7.83926E-002	  7.52042E-002	  7.60929E-002	  7.75124E-002	  7.85832E-002	
  1.66400E-001	  7.62790E-002	  7.74131E-002	  7.45528E-002	  7.49420E-002	  7.22931E-002	  7.77507E-002	  8.07223E-002	
  1.79200E-001	  7.45818E-002	  7.55114E-002	  7.49065E-002	  7.26315E-002	  7.53565E-002	  7.32789E-002	  7.58063E-002	
  1.92000E-001	  7.32825E-002	  7.37210E-002	  7.15927E-002	  7.05991E-002	  7.43241E-002	  7.81559E-002	  7.13021E-002	
  2.04800E-001	  7.25768E-002	  7.29608E-002	  7.14659E-002	  7.13388E-002	  7.19629E-002	  7.54549E-002	  7.22776E-002	
  2.30400E-001	  7.11013E-002	  7.07177E-002	  7.25672E-002	  7.03360E-002	  7.06695E-002	  6.98436E-002	  7.24740E-002	
  2.56000E-001	  6.91510E-002	  7.07745E-002	  7.12686E-002	  6.68359E-002	  6.82854E-002	  6.86135E-002	  6.91280E-002	
  2.81600E-001	  6.70938E-002	  6.80378E-002	  6.60295E-002	  6.76875E-002	  6.60773E-002	  6.71224E-002	  6.76083E-002	
  3.07200E-001	  6.51560E-002	  6.49888E-002	  6.23101E-002	  6.47964E-002	  6.59681E-002	  6.75008E-002	  6.53719E-002	
  3.32800E-001	  6.36374E-002	  6.51496E-002	  6.34984E-002	  6.15288E-002	  6.26426E-002	  6.30730E-002	  6.59322E-002	
  3.58400E-001	  6.15912E-002	  6.28752E-002	  6.14657E-002	  5.86445E-002	  5.98755E-002	  6.12661E-002	  6.54200E-002	
  3.84000E-001	  5.98845E-002	  5.90130E-002	  5.99769E-002	  6.03786E-002	  6.02752E-002	  5.90585E-002	  6.06046E-002	
  4.09600E-001	  5.85599E-002	  6.05816E-002	  5.76257E-002	  5.80588E-002	  5.82040E-002	  5.76020E-002	  5.92871E-002	
  4.60800E-001	  5.62818E-002	  5.68917E-002	  5.44874E-002	  5.54012E-002	  5.67238E-002	  5.49244E-002	  5.92622E-002	
  5.12000E-001	  5.34722E-002	  5.44854E-002	  5.36323E-002	  5.02882E-002	  5.29048E-002	  5.30715E-002	  5.64512E-002	
  5.63200E-001	  5.13302E-002	  5.29182E-002	  5.11927E-002	  5.14742E-002	  5.00610E-002	  5.09856E-002	  5.13494E-002	
  6.14400E-001	  4.89451E-002	  4.72288E-002	  5.10712E-002	  4.68999E-002	  4.88481E-002	  4.86256E-002	  5.09969E-002	
  6.65600E-001	  4.74662E-002	  4.73009E-002	  4.72399E-002	  4.71880E-002	  4.78395E-002	  4.47928E-002	  5.04358E-002	
  7.16800E-001	  4.54955E-002	  4.60502E-002	  4.58173E-002	  4.37952E-002	  4.63396E-002	  4.30602E-002	  4.79107E-002	
  7.68000E-001	  4.37014E-002	  4.33659E-002	  4.24365E-002	  4.27230E-002	  4.34169E-002	  4.32810E-002	  4.69849E-002	
  8.19200E-001	  4.26380E-002	  4.23245E-002	  4.26730E-002	  4.16634E-002	  4.28914E-002	  4.11373E-002	  4.51387E-002	
  9.21600E-001	  3.99953E-002	  3.99437E-002	  3.99946E-002	  4.03558E-002	  3.91899E-002	  3.94250E-002	  4.10626E-002	
  1.02400E+000	  3.70645E-002	  3.72351E-002	  3.70930E-002	  3.50416E-002	  3.69368E-002	  3.67606E-002	  3.93202E-002	
  1.12640E+000	  3.48987E-002	  3.48030E-002	  3.52198E-002	  3.40849E-002	  3.33956E-002	  3.56790E-002	  3.62101E-002	
  1.22880E+000	  3.35260E-002	  3.27955E-002	  3.43141E-002	  3.14392E-002	  3.38119E-002	  3.43283E-002	  3.44670E-002	
  1.33120E+000	  3.13557E-002	  3.11869E-002	  3.05299E-002	  2.90890E-002	  3.11444E-002	  3.26511E-002	  3.35326E-002	
  1.43360E+000	  2.99574E-002	  2.93153E-002	  3.14570E-002	  2.88235E-002	  2.76652E-002	  3.10889E-002	  3.13944E-002	
  1.53600E+000	  2.89401E-002	  2.90941E-002	  2.86501E-002	  2.70448E-002	  2.68428E-002	  3.04700E-002	  3.15390E-002	
  1.63840E+000	  2.74779E-002	  2.78527E-002	  2.74478E-002	  2.42406E-002	  2.68345E-002	  2.89450E-002	  2.95465E-002	
  1.84320E+000	  2.49350E-002	  2.47637E-002	  2.53157E-002	  2.24971E-002	  2.44902E-002	  2.54514E-002	  2.70920E-002	
  2.04800E+000	  2.31369E-002	  2.30341E-002	  2.32367E-002	  2.12490E-002	  2.26638E-002	  2.28543E-002	  2.57835E-002	
  2.25280E+000	  2.14383E-002	  2.14916E-002	  2.06613E-002	  1.98331E-002	  2.06118E-002	  2.24159E-002	  2.36159E-002	
  2.45760E+000	  1.97822E-002	  2.05716E-002	  1.90389E-002	  1.82850E-002	  1.73661E-002	  2.17390E-002	  2.16926E-002	
  2.66240E+000	  1.82705E-002	  1.77165E-002	  1.86277E-002	  1.64347E-002	  1.75112E-002	  1.92989E-002	  2.00340E-002	
  2.86720E+000	  1.71778E-002	  1.68898E-002	  1.71457E-002	  1.52709E-002	  1.70447E-002	  1.70792E-002	  1.96367E-002	
  3.07200E+000	  1.69806E-002	  1.76760E-002	  1.61720E-002	  1.55340E-002	  1.62463E-002	  1.68424E-002	  1.94126E-002	
  3.22560E+000	  1.68326E-002	  1.82657E-002	  1.54416E-002	  1.57314E-002	  1.56475E-002	  1.66648E-002	  1.92445E-002	
  3.63520E+000	  1.52360E-002	  1.65430E-002	  1.37262E-002	  1.39929E-002	  1.48548E-002	  1.53875E-002	  1.69118E-002	
  4.04480E+000	  1.35097E-002	  1.48055E-002	  1.22200E-002	  1.17870E-002	  1.43259E-002	  1.43097E-002	  1.36105E-002	
  4.45440E+000	  1.23077E-002	  1.30301E-002	  1.16057E-002	  1.13267E-002	  1.25372E-002	  1.39984E-002	  1.13481E-002	
  4.86400E+000	  1.11993E-002	  1.23393E-002	  9.76960E-003	  1.03669E-002	  1.22825E-002	  1.20902E-002	  1.03473E-002	
  5.27360E+000	  1.03912E-002	  1.08803E-002	  9.52257E-003	  8.75561E-003	  1.07147E-002	  1.09253E-002	  1.15489E-002	
  5.68320E+000	  9.98974E-003	  9.71686E-003	  8.63456E-003	  8.48094E-003	  1.01905E-002	  1.14258E-002	  1.14898E-002	
  6.09280E+000	  9.17128E-003	  9.26673E-003	  7.93203E-003	  7.18623E-003	  8.16031E-003	  1.03588E-002	  1.21236E-002	
  6.50240E+000	  8.75048E-003	  8.89377E-003	  7.08402E-003	  7.06516E-003	  8.15588E-003	  9.85792E-003	  1.14461E-002	
  7.32160E+000	  7.39783E-003	  7.71042E-003	  6.31911E-003	  6.70927E-003	  7.27900E-003	  7.96949E-003	  8.39966E-003	
  8.14080E+000	  6.39021E-003	  7.46214E-003	  5.16013E-003	  6.23593E-003	  5.12232E-003	  7.52949E-003	  6.83125E-003	
  8.96000E+000	  5.83807E-003	  7.25084E-003	  4.11063E-003	  6.24312E-003	  4.91433E-003	  5.75010E-003	  6.75942E-003	
  9.77920E+000	  5.17954E-003	  6.67449E-003	  3.59984E-003	  5.73471E-003	  3.66080E-003	  5.71935E-003	  5.68802E-003	
  1.05984E+001	  4.99763E-003	  7.43504E-003	  3.00829E-003	  5.28684E-003	  3.89225E-003	  5.59278E-003	  4.77060E-003	
  1.14176E+001	  4.51428E-003	  6.74474E-003	  3.18184E-003	  5.33064E-003	  3.48240E-003	  4.35858E-003	  3.98749E-003	
  1.22368E+001	  4.17541E-003	  7.32224E-003	  2.07841E-003	  4.05593E-003	  3.66595E-003	  5.13871E-003	  2.79120E-003	
  1.30560E+001	  3.85066E-003	  6.61069E-003	  2.06399E-003	  2.63714E-003	  4.08438E-003	  4.79879E-003	  2.90895E-003	
  1.46944E+001	  3.57965E-003	  5.30561E-003	  2.46524E-003	  2.01795E-003	  4.85460E-003	  3.93380E-003	  2.90070E-003	
  1.63328E+001	  3.46641E-003	  4.62545E-003	  3.13546E-003	  2.21948E-003	  3.93112E-003	  3.24531E-003	  3.64165E-003	
  1.79712E+001	  3.25986E-003	  4.12075E-003	  3.39511E-003	  2.36117E-003	  2.73761E-003	  3.14784E-003	  3.79669E-003	
  1.96096E+001	  2.73119E-003	  3.85580E-003	  2.13065E-003	  2.72518E-003	  2.44605E-003	  2.28409E-003	  2.94535E-003	
  2.12480E+001	  2.38791E-003	  3.10964E-003	  2.44366E-003	  2.89464E-003	  1.71305E-003	  1.69542E-003	  2.47105E-003	
  2.28864E+001	  2.17027E-003	  3.47377E-003	  1.14676E-003	  2.13726E-003	  1.14120E-003	  2.80961E-003	  2.31305E-003	
  2.45248E+001	  2.14861E-003	  3.43047E-003	  1.00621E-003	  2.93532E-003	  8.65507E-004	  3.20792E-003	  1.44623E-003	
  2.61632E+001	  2.02959E-003	  3.17771E-003	  8.21555E-004	  3.54547E-003	  7.45841E-004	  2.49857E-003	  1.38841E-003	
  2.94400E+001	  2.21958E-003	  1.83956E-003	  1.55635E-003	  3.02599E-003	  2.51318E-003	  2.38108E-003	  2.00130E-003	
  3.27168E+001	  1.53950E-003	  1.38363E-003	  1.59177E-003	  1.85423E-003	  1.71788E-003	  7.21872E-004	  1.96765E-003	
  3.59936E+001	  1.44212E-003	  2.26059E-003	  1.15303E-003	  6.16953E-004	  2.15693E-003	  1.17779E-003	  1.28743E-003	
  3.92704E+001	  1.61636E-003	  2.14395E-003	 -3.39261E-004	  1.88163E-003	  2.60533E-003	  1.64492E-003	  1.76157E-003	
  4.25472E+001	  1.48602E-003	  1.20829E-003	  1.08999E-004	  8.90262E-004	  2.95494E-003	  1.44541E-003	  2.30822E-003	
  4.58240E+001	  1.55245E-003	  2.68349E-003	  4.17832E-004	  1.03073E-003	  2.01340E-003	  1.06469E-003	  2.10454E-003	
  4.91008E+001	  9.00078E-004	  2.63414E-003	 -1.23850E-003	  7.13047E-004	  1.44429E-003	  2.79955E-004	  1.56753E-003	
  5.23776E+001	  8.68723E-004	  2.47968E-003	 -6.54825E-004	  2.92809E-004	  6.62055E-004	  8.46552E-004	  1.58607E-003	
  5.89312E+001	  9.11134E-004	  1.97992E-003	 -1.06343E-003	 -5.44638E-005	  6.51018E-004	  2.67177E-003	  1.28198E-003	
  6.54848E+001	  1.13732E-003	  1.78331E-003	  5.41235E-004	  3.16323E-004	  1.25645E-003	  2.17891E-003	  7.47681E-004	
  7.20384E+001	  9.08933E-004	  7.95504E-004	  3.47899E-004	  8.34348E-004	  7.28766E-004	  1.55570E-003	  1.19138E-003	
  7.85920E+001	  5.83193E-004	  6.78789E-004	  2.59037E-004	 -8.67247E-004	  1.15581E-003	  3.77222E-004	  1.89554E-003	
  8.51456E+001	  9.55586E-004	  1.11016E-003	  6.46956E-004	 -6.64111E-004	  8.03270E-004	  2.00594E-003	  1.83130E-003	
  9.16992E+001	  8.78898E-004	  1.37055E-003	  1.02425E-003	  3.06057E-005	  1.72908E-003	  1.01480E-003	  1.04107E-004	
  9.82528E+001	  7.77230E-004	  1.18373E-003	  1.57019E-003	  4.42169E-004	  7.22093E-004	  1.09932E-003	 -3.54128E-004	
  1.04806E+002	  7.69949E-004	  1.97978E-003	  1.39174E-003	 -5.61809E-004	  5.27249E-004	  1.49923E-003	 -2.16486E-004	
  1.17914E+002	  6.15015E-004	  1.10291E-003	  9.87444E-004	 -4.94438E-004	  9.81565E-004	  1.33644E-003	 -2.23827E-004	
  1.31021E+002	  6.66312E-004	  7.63988E-004	  1.71023E-003	 -4.22205E-004	  8.82982E-004	  1.14457E-003	 -8.16928E-005	
  1.44128E+002	  5.48822E-004	  9.26130E-005	  4.08845E-004	 -2.71869E-004	  5.79176E-004	  1.36992E-003	  1.11425E-003	
  1.57235E+002	  3.26398E-004	  3.18381E-004	 -1.04745E-003	  1.14140E-004	  6.38366E-004	  1.16687E-003	  7.68076E-004	
  1.70342E+002	  5.40616E-004	  2.60328E-004	 -9.08913E-004	  5.59418E-004	  1.07774E-003	  1.68635E-003	  5.68780E-004	
  1.83450E+002	 -7.85043E-005	 -5.74824E-004	 -1.54327E-004	 -6.46047E-004	  1.12384E-003	  4.37107E-004	 -6.56772E-004	
  1.96557E+002	  1.84671E-004	 -2.14537E-005	  2.92749E-004	  3.02619E-004	  7.11932E-004	  1.33698E-003	 -1.51480E-003	
  2.09664E+002	 -1.05761E-004	  1.43391E-005	 -5.01713E-004	 -2.69695E-005	  3.24798E-005	  7.05553E-004	 -8.58256E-004	
  2.35878E+002	  2.39012E-004	  6.67358E-004	  1.74323E-004	 -1.98853E-004	  3.87387E-004	 -4.95714E-005	  4.53429E-004	
  2.62093E+002	  3.72386E-004	  8.72289E-005	  2.66117E-004	 -3.74734E-004	  9.85608E-004	  1.49739E-003	 -2.27289E-004	
  2.88307E+002	 -2.30855E-004	 -3.42694E-004	 -1.34203E-003	  6.04869E-004	 -1.01046E-004	 -7.55125E-004	  5.50899E-004	
  3.14522E+002	  6.08128E-004	  9.97878E-004	 -3.08201E-005	  8.04885E-004	  6.50329E-004	  6.17977E-004	  6.08520E-004	
  3.40736E+002	  4.09981E-004	  1.12735E-003	  1.74459E-004	  3.29140E-004	  8.45531E-004	 -2.42338E-004	  2.25745E-004	
  3.66950E+002	  7.70321E-005	  8.61389E-004	 -3.21432E-004	  1.14676E-003	  7.72830E-006	 -8.52384E-004	 -3.79866E-004	
  3.93165E+002	 -2.02334E-004	  6.35779E-004	 -4.21078E-004	  1.71314E-004	 -1.05126E-004	 -1.18378E-003	 -3.11113E-004	
  4.19379E+002	 -1.44723E-004	  2.63561E-004	 -1.54916E-004	 -3.96792E-004	  4.37113E-004	 -5.67825E-004	 -4.49480E-004	
  4.71808E+002	 -1.24993E-004	 -5.71759E-004	 -3.11586E-004	 -8.82088E-005	  6.58364E-004	  8.49744E-005	 -5.21742E-004	
  5.24237E+002	 -1.55366E-004	 -4.01823E-004	 -5.07902E-004	 -1.69899E-004	  1.52757E-004	 -5.88590E-004	  5.83260E-004	
  5.76666E+002	  1.24943E-004	 -5.26363E-005	  1.22041E-004	 -5.28465E-005	  6.73239E-004	  2.55604E-005	  3.42997E-005	
  6.29094E+002	 -2.97038E-004	 -5.84850E-004	 -4.23812E-004	  3.12527E-004	 -9.90281E-004	 -2.04377E-004	  1.08562E-004	
  6.81523E+002	  2.66429E-004	  6.51613E-005	  8.44091E-004	 -8.25013E-005	 -8.89231E-005	 -1.68744E-004	  1.02949E-003	
  7.33952E+002	  1.49995E-004	 -1.09346E-004	  1.12258E-003	 -4.69066E-005	  1.75203E-004	 -9.54880E-005	 -1.46070E-004	
  7.86381E+002	  3.61148E-005	  4.12606E-004	  1.80995E-004	 -2.94981E-004	 -3.48010E-004	 -9.95609E-005	  3.65639E-004	
  8.38810E+002	  1.50607E-004	 -5.56154E-005	  1.82611E-004	 -6.85807E-004	  8.80329E-004	  2.34597E-004	  3.47530E-004	
  9.43667E+002	  1.78240E-004	  9.39321E-007	 -2.37724E-004	  8.48939E-004	  6.98112E-005	  2.23931E-004	  1.63543E-004	
  1.04852E+003	 -6.72157E-007	  3.35119E-004	  3.81958E-004	  2.08419E-004	 -6.61484E-004	 -1.47197E-004	 -1.20849E-004	
  1.15338E+003	  1.66802E-004	  5.66989E-004	  2.03911E-005	  1.61003E-004	  7.60105E-005	 -8.50723E-004	  1.02714E-003	
  1.25824E+003	  2.51379E-004	  4.63928E-004	  8.43184E-005	  8.17883E-005	  4.44829E-004	  1.46679E-004	  2.86731E-004	
  1.36310E+003	 -1.28607E-004	 -4.94642E-004	 -4.01992E-004	 -7.82114E-005	  4.74613E-004	 -2.95322E-004	  2.39109E-005	
  1.46796E+003	 -1.04710E-004	 -6.98994E-004	  2.87386E-004	 -7.53702E-004	 -5.26202E-005	  8.04443E-004	 -2.14773E-004	
  1.57281E+003	 -2.09957E-004	 -5.58040E-004	 -4.46713E-004	 -2.14926E-004	 -5.15005E-004	  5.62070E-004	 -8.71301E-005	
  1.67767E+003	  2.74952E-005	 -1.70298E-004	  1.31522E-004	  9.74878E-005	 -1.45788E-004	  2.99465E-004	 -4.74176E-005	
  1.88739E+003	  3.02896E-004	  2.95475E-004	  1.78377E-004	  2.10144E-004	 -1.38343E-004	  4.02570E-004	  8.69153E-004	
  2.09710E+003	  8.15659E-005	 -2.89126E-004	  8.57304E-005	  8.71855E-005	  4.66843E-005	  4.20018E-005	  5.16919E-004	
  2.30682E+003	 -1.80200E-004	  1.70555E-004	 -1.49108E-004	 -3.99576E-004	 -3.58677E-004	  2.63421E-005	 -3.70739E-004	
  2.51653E+003	 -7.64474E-005	  5.81478E-004	  5.70795E-005	  1.75099E-005	 -5.24651E-004	 -3.15553E-004	 -2.74547E-004	
  2.72625E+003	 -9.21996E-005	 -1.45221E-004	 -2.85166E-004	  1.82639E-004	 -1.32718E-004	 -3.04227E-004	  1.31495E-004	
  2.93596E+003	 -1.71348E-005	 -9.48467E-005	 -3.50034E-004	  9.13892E-005	 -3.01222E-004	 -3.20397E-006	  5.55109E-004	
  3.14568E+003	 -1.41796E-004	 -4.67119E-004	 -1.33595E-004	 -2.66884E-005	  2.54758E-004	 -4.08749E-005	 -4.37256E-004	
  3.35539E+003	  1.62896E-005	  2.43126E-004	 -7.35591E-005	 -1.23193E-004	  3.15329E-004	  3.61802E-004	 -6.25768E-004	
  3.77482E+003	 -4.15326E-005	 -2.75264E-004	  1.05672E-004	  1.37130E-004	 -1.69408E-004	 -4.04744E-004	  3.57419E-004	
  4.19425E+003	  2.00533E-005	 -4.36971E-004	  7.99561E-005	  3.59105E-004	  1.29056E-005	  1.89827E-004	 -8.45024E-005	
  4.61368E+003	  4.51567E-007	 -2.91633E-004	  1.79976E-004	  5.34324E-005	  2.14652E-004	 -4.05042E-004	  2.51323E-004	
  5.03311E+003	 -1.15272E-004	 -2.00412E-005	 -2.88760E-004	 -2.32171E-004	 -3.42283E-004	 -1.58041E-004	  3.49662E-004	
  5.45254E+003	  2.54594E-005	 -1.65557E-005	  9.91578E-005	 -7.64339E-005	 -3.57873E-004	  2.27371E-004	  2.77090E-004	
  5.87197E+003	  3.24229E-005	  5.99066E-004	  1.79634E-004	 -4.45688E-004	 -1.08733E-004	 -3.77677E-004	  3.47936E-004	
  6.29140E+003	 -3.21428E-005	  1.71858E-004	  1.12935E-004	 -2.34760E-004	 -4.42079E-004	  3.56878E-004	 -1.57688E-004	

"Count Rate"
       0.11719	      12.59970	      60.98394
       0.23438	      13.78626	      66.89965
       0.35156	      12.61678	      61.94001
       0.46875	      13.82041	      67.68500
       0.58594	      13.35091	      61.00954
       0.70313	      14.57161	      65.18384
       0.82031	      13.96553	      59.89128
       0.93750	      13.08628	      59.65226
       1.05469	      12.59117	      60.45468
       1.17188	      15.81792	      79.26034
       1.28906	      11.74607	      60.16444
       1.40625	      12.72775	      54.37677
       1.52344	      13.03506	      60.78760
       1.64063	      12.28386	      53.40363
       1.75781	      12.53141	      60.48029
       1.87500	      14.87892	      76.26407
       1.99219	      12.71921	      54.48775
       2.10938	      14.14479	      66.91673
       2.22656	      12.51434	      59.27666
       2.34375	      14.86185	      60.42907
       2.46094	      11.38754	      51.78172
       2.57813	      12.90701	      61.72660
       2.69531	      11.81436	      57.23647
       2.81250	      13.33383	      64.09972
       2.92969	      13.99114	      73.79705
       3.04688	      13.51310	      66.67770
       3.16406	      14.91306	      66.63503
       3.28125	      13.59846	      61.46198
       3.39844	      13.69236	      63.70704
       3.51563	      12.93262	      71.96173
       3.63281	      13.00091	      65.77285
       3.75000	      12.88994	      59.20837
       3.86719	      12.27532	      55.26456
       3.98438	      13.23993	      67.64232
       4.10156	      16.11670	      73.75437
       4.21875	      12.89848	      58.91813
       4.33594	      11.92533	      57.04866
       4.45313	      12.94970	      59.29373
       4.57031	      14.40088	      61.82050
       4.68750	      13.82894	      61.76928
       4.80469	      13.57285	      59.33641
       4.92188	      14.22162	      65.98626
       5.03906	      13.55578	      60.31810
       5.15625	      13.19725	      65.61066
       5.27344	      11.56680	      56.72428
       5.39063	      12.41190	      62.10220
       5.50781	      15.76670	      71.19345
       5.62500	      11.58387	      55.40114
       5.74219	      12.95823	      68.64108
       5.85938	      14.49478	      69.07643
       5.97656	      14.29845	      67.94963
       6.09375	      14.01674	      65.33749
       6.21094	      13.50456	      57.01452
       6.32813	      12.14728	      57.67182
       6.44531	      12.45459	      61.81197
       6.56250	      12.27532	      62.31561
       6.67969	      15.10940	      57.79133
       6.79688	      12.36922	      57.46695
       6.91406	      11.99362	      61.65831
       7.03125	      12.85580	      58.34620
       7.14844	      13.29115	      61.67538
       7.26563	      13.29115	      61.18027
       7.38281	      13.05213	      60.02786
       7.50000	      12.39483	      58.17546
       7.61719	      13.59846	      59.41324
       7.73438	      15.33988	      69.87032
       7.85156	      13.06067	      57.99620
       7.96875	      13.59846	      64.20216
       8.08594	      14.70819	      70.58737
       8.20313	      13.23993	      66.64356
       8.32031	      14.78502	      66.08870
       8.43750	      14.05943	      65.79846
       8.55469	      13.88870	      63.57900
       8.67188	      13.43627	      63.42534
       8.78906	      14.71673	      68.05206
       8.90625	      13.04360	      62.34122
       9.02344	      14.17894	      65.73870
       9.14063	      13.41066	      62.29000
       9.25781	      12.13874	      60.17298
       9.37500	      14.42649	      71.71417
       9.49219	      12.19849	      59.04618
       9.60938	      12.56556	      61.83757
       9.72656	      12.73629	      60.07055
       9.84375	      13.14603	      63.59607
       9.96094	      12.49727	      57.14256
      10.07813	      16.83375	      74.44582
      10.19531	      14.19601	      67.60817
      10.31250	      13.71797	      58.93520
      10.42969	      13.30822	      62.43512
      10.54688	      13.80334	      65.76431
      10.66406	      12.60824	      57.46695
      10.78125	      12.57410	      71.39833
      10.89844	      13.16311	      60.36932
      11.01563	      12.72775	      58.07303
      11.13281	      12.75336	      62.40098
      11.25000	      12.49727	      61.35954
      11.36719	      14.01674	      64.97897
      11.48438	      10.92657	      53.84752
      11.60156	      12.45459	      55.58894
      11.71875	      13.50456	      62.33269
      11.83594	      13.93138	      62.64853
      11.95313	      14.32405	      64.24483
      12.07031	      12.12167	      64.73141
      12.18750	      11.93387	      57.78279
      12.30469	      11.17413	      55.81942
      12.42188	      12.54849	      63.50217
      12.53906	      13.31676	      65.48261
      12.65625	      12.68507	      59.10593
      12.77344	      12.69361	      61.89733
      12.89063	      11.81436	      55.52065
      13.00781	      13.18018	      66.28503
      13.12500	      12.93262	      64.47532
      13.24219	      12.85580	      58.22668
      13.35938	      12.07045	      57.21939
      13.47656	      13.36798	      68.66669
      13.59375	      13.38505	      64.02289
      13.71094	      12.61678	      62.96438
      13.82813	      11.95094	      56.64745
      13.94531	      12.78751	      62.51195
      14.06250	      14.17040	      65.45700
      14.17969	      14.07650	      63.08389
      14.29688	      14.62283	      60.60834
      14.41406	      13.97406	      66.75453
      14.53125	      13.46188	      60.71077
      14.64844	      13.88870	      69.08497
      14.76563	      13.21432	      59.12300
      14.88281	      14.07650	      65.80699
      15.00000	      15.20330	      68.63254
      15.11719	      14.11065	      68.42767
      15.23438	      12.65946	      64.33020
      15.35156	      14.67405	      72.44830
      15.46875	      15.34842	      69.75934
      15.58594	      13.59846	      60.33517
      15.70313	      15.59598	      72.38855
      15.82031	      12.84726	      62.23025
      15.93750	      13.16311	      59.99372
      16.05469	      12.41190	      68.19718
      16.17188	      13.75212	      60.48883
      16.28906	      14.84477	      68.88010
      16.40625	      14.72526	      70.86053
      16.52344	      14.34966	      71.43247
      16.64063	      12.37776	      60.95833
      16.75781	      12.00216	      57.26207
      16.87500	      13.91431	      69.71666
      16.99219	      13.00091	      64.32166
      17.10938	      11.62656	      61.53880
      17.22656	      15.20330	      72.18368
      17.34375	      15.70695	      76.75064
      17.46094	      13.43627	      68.73498
      17.57813	      12.15581	      56.27185
      17.69531	      13.21432	      61.43637
      17.81250	      13.58993	      58.86691
      17.92969	      14.27284	      67.22404
      18.04688	      14.71673	      66.31064
      18.16406	      12.94970	      63.83509
      18.28125	      13.86309	      61.01808
      18.39844	      14.07650	      65.61066
      18.51563	      12.74482	      62.02538
      18.63281	      15.45086	      72.55927
      18.75000	      12.54849	      61.21442
      18.86719	      13.11189	      62.87048
      18.98438	      15.09233	      76.53723
      19.10156	      13.06921	      65.18384
      19.21875	      15.48500	      75.36774
      19.33594	      14.63136	      66.96794
      19.45313	      13.01799	      63.07535
      19.57031	      12.80458	      62.48634
      19.68750	      13.22286	      67.13867
      19.80469	      13.30822	      63.04121
      19.92188	      12.47166	      56.59623
      20.03906	      14.63990	      69.79349
      20.15625	      14.11918	      63.45949
      20.27344	      11.34486	      57.31329
      20.39063	      13.00091	      59.54129
      20.50781	      14.69112	      75.44457
      20.62500	      14.10211	      58.43156
      20.74219	      14.00821	      64.56068
      20.85938	      12.64239	      64.22776
      20.97656	      13.17164	      58.96935
      21.09375	      14.48625	      67.57403
      21.21094	      14.46064	      73.31048
      21.32813	      13.61553	      62.71682
      21.44531	      13.85455	      61.99977
      21.56250	      12.71068	      63.49363
      21.67969	      14.40942	      63.22901
      21.79688	      13.17164	      62.05952
      21.91406	      13.34237	      63.75826
      22.03125	      15.04965	      70.92883
      22.14844	      13.34237	      67.87280
      22.26563	      13.11189	      59.19983
      22.38281	      11.99362	      59.00349
      22.50000	      13.14603	      64.58629
      22.61719	      13.94845	      66.60941
      22.73438	      14.64844	      73.25926
      22.85156	      15.83500	      75.55555
      22.96875	      13.46188	      68.95692
      23.08594	      13.59846	      61.04369
      23.20313	      15.44232	      64.62044
      23.32031	      14.07650	      60.87296
      23.43750	      13.43627	      67.82158
      23.55469	      12.59970	      64.18508
      23.67188	      11.37900	      57.96206
      23.78906	      12.71921	      61.57295
      23.90625	      13.88016	      61.50466
      24.02344	      14.82770	      69.19594
      24.14063	      14.68258	      64.59483
      24.25781	      14.11065	      66.90819
      24.37500	      12.97531	      59.59251
      24.49219	      13.37652	      62.40098
      24.60938	      14.21308	      63.04121
      24.72656	      13.04360	      64.79117
      24.84375	      14.28137	      68.79473
      24.96094	      13.12042	      62.37537
      25.07813	      14.17894	      64.29605
      25.19531	      12.15581	      59.65226
      25.31250	      10.11562	      50.76588
      25.42969	      13.69236	      69.31545
      25.54688	      14.67405	      71.42393
      25.66406	      13.95699	      69.81056
      25.78125	      13.23993	      65.99480
      25.89844	      13.18871	      64.12533
      26.01563	      14.37527	      65.12408
      26.13281	      12.94116	      72.21782
      26.25000	      11.84850	      55.48650
      26.36719	      15.04965	      69.02522
      26.48438	      12.35215	      59.80592
      26.60156	      13.50456	      66.81429
      26.71875	      14.35820	      71.11662
      26.83594	      13.88016	      63.16925
      26.95313	      13.93138	      65.60212
      27.07031	      13.14603	      59.89981
      27.18750	      13.19725	      63.67290
      27.30469	      13.17164	      65.41432
      27.42188	      14.63136	      68.88863
      27.53906	      14.82770	      66.58381
      27.65625	      13.00091	      62.38390
      27.77344	      15.57037	      69.36667
      27.89063	      15.21184	      72.90927
      28.00781	      12.39483	      61.03516
      28.12500	      14.76795	      75.02629
      28.24219	      12.58263	      58.42302
      28.35938	      12.71068	      56.21210
      28.47656	      14.50332	      65.01311
      28.59375	      11.41315	      56.34015
      28.71094	      12.40337	      64.80824
      28.82813	      15.21184	      66.47283
      28.94531	      15.10940	      69.95568
      29.06250	      14.02528	      62.30708
      29.17969	      12.81311	      59.02057
      29.29688	      12.72775	      67.48866
      29.41406	      11.74607	      60.42054
      29.53125	      13.64968	      65.43993
      29.64844	      15.97158	      69.17886
      29.76563	      13.11189	      66.45576
      29.88281	      13.38505	      57.79133
