ALV-5000/E-WIN Data
Date :	"14.01.2011"
Time :	"15:23:50"
Samplename : 	""
SampMemo(0) : 	""
SampMemo(1) : 	""
SampMemo(2) : 	""
SampMemo(3) : 	""
SampMemo(4) : 	""
SampMemo(5) : 	""
SampMemo(6) : 	""
SampMemo(7) : 	""
SampMemo(8) : 	""
SampMemo(9) : 	""
Temperature [K] :	     298.16000
Viscosity [cp]  :	       0.89000
Refractive Index:	       1.33200
Wavelength [nm] :	     632.80000
Angle [°]       :	      90.00000
Duration [s]    :	        30
Runs            :	         6
Mode            :	"SINGLE AUTO CH0"
MeanCR0 [kHz]   :	     268.13739
MeanCR1 [kHz]   :	       0.00000

"Correlation (Multi, Averaged)"
"Lag [ms]"	"Average"	" 1, 266.992"	" 2, 266.543"	" 3, 266.916"	" 4, 266.046"	" 5, 267.830"	" 6, 268.137"	
  2.00000E-004	  1.84775E-001	  1.83089E-001	  1.84357E-001	  1.82957E-001	  1.86798E-001	  1.83898E-001	  1.87552E-001	
  4.00000E-004	  9.88646E-002	  9.89201E-002	  1.00694E-001	  9.95607E-002	  9.89422E-002	  9.66181E-002	  9.84524E-002	
  6.00000E-004	  8.00513E-002	  8.16153E-002	  7.99187E-002	  7.83127E-002	  8.07430E-002	  7.77012E-002	  8.20168E-002	
  8.00000E-004	  7.40409E-002	  7.70695E-002	  7.35567E-002	  7.62318E-002	  7.43310E-002	  7.19526E-002	  7.11040E-002	
  1.00000E-003	  7.13011E-002	  7.18147E-002	  7.30367E-002	  6.96684E-002	  7.22546E-002	  7.09297E-002	  7.01022E-002	
  1.20000E-003	  6.71766E-002	  6.81921E-002	  6.55262E-002	  6.47830E-002	  6.73415E-002	  6.91813E-002	  6.80355E-002	
  1.40000E-003	  6.52612E-002	  6.45578E-002	  6.56940E-002	  6.40595E-002	  6.75292E-002	  6.47692E-002	  6.49576E-002	
  1.60000E-003	  6.47245E-002	  6.48146E-002	  6.29148E-002	  6.47335E-002	  6.61938E-002	  6.61174E-002	  6.35728E-002	
  1.80000E-003	  6.30722E-002	  6.43600E-002	  6.13314E-002	  6.15449E-002	  6.49403E-002	  6.28780E-002	  6.33790E-002	
  2.00000E-003	  6.25263E-002	  6.27301E-002	  6.22058E-002	  6.30909E-002	  6.46010E-002	  6.08627E-002	  6.16672E-002	
  2.20000E-003	  6.01969E-002	  5.84645E-002	  6.15700E-002	  6.05928E-002	  6.06985E-002	  6.05842E-002	  5.92712E-002	
  2.40000E-003	  6.05401E-002	  6.33896E-002	  6.00504E-002	  6.13375E-002	  6.09607E-002	  5.88568E-002	  5.86454E-002	
  2.60000E-003	  6.02952E-002	  6.30669E-002	  5.60376E-002	  6.12668E-002	  5.83045E-002	  6.21313E-002	  6.09643E-002	
  2.80000E-003	  5.87188E-002	  5.93925E-002	  5.75454E-002	  5.87829E-002	  6.11941E-002	  5.67619E-002	  5.86360E-002	
  3.00000E-003	  5.89341E-002	  6.02475E-002	  5.86183E-002	  6.07201E-002	  5.76019E-002	  5.79884E-002	  5.84282E-002	
  3.20000E-003	  5.93616E-002	  5.87296E-002	  5.98493E-002	  6.06682E-002	  6.00221E-002	  5.79374E-002	  5.89631E-002	
  3.60000E-003	  5.83236E-002	  6.03053E-002	  5.45142E-002	  5.89431E-002	  5.98970E-002	  5.85097E-002	  5.77721E-002	
  4.00000E-003	  5.81309E-002	  6.08494E-002	  5.71801E-002	  5.73407E-002	  5.86098E-002	  5.81985E-002	  5.66068E-002	
  4.40000E-003	  5.79307E-002	  5.90547E-002	  5.72804E-002	  5.73985E-002	  5.74152E-002	  5.73185E-002	  5.91172E-002	
  4.80000E-003	  5.64331E-002	  5.79359E-002	  5.67179E-002	  5.70556E-002	  5.50561E-002	  5.54506E-002	  5.63826E-002	
  5.20000E-003	  5.68418E-002	  5.61387E-002	  5.60739E-002	  5.78758E-002	  5.75270E-002	  5.70399E-002	  5.63955E-002	
  5.60000E-003	  5.63090E-002	  5.73165E-002	  5.32675E-002	  5.66374E-002	  5.57863E-002	  5.82629E-002	  5.65835E-002	
  6.00000E-003	  5.59024E-002	  5.67055E-002	  5.36445E-002	  5.57630E-002	  5.59776E-002	  5.62476E-002	  5.70762E-002	
  6.40000E-003	  5.53616E-002	  5.65397E-002	  5.43904E-002	  5.61945E-002	  5.34221E-002	  5.57405E-002	  5.58825E-002	
  7.20000E-003	  5.53799E-002	  5.54098E-002	  5.49385E-002	  5.61816E-002	  5.55633E-002	  5.36251E-002	  5.65609E-002	
  8.00000E-003	  5.41181E-002	  5.45530E-002	  5.30473E-002	  5.49313E-002	  5.43146E-002	  5.39130E-002	  5.39495E-002	
  8.80000E-003	  5.46803E-002	  5.47720E-002	  5.40989E-002	  5.51935E-002	  5.49252E-002	  5.35877E-002	  5.55042E-002	
  9.60000E-003	  5.42811E-002	  5.53574E-002	  5.37880E-002	  5.40451E-002	  5.38233E-002	  5.43068E-002	  5.43662E-002	
  1.04000E-002	  5.36031E-002	  5.53921E-002	  5.17822E-002	  5.50068E-002	  5.23959E-002	  5.29317E-002	  5.41101E-002	
  1.12000E-002	  5.31330E-002	  5.32076E-002	  5.11742E-002	  5.37053E-002	  5.37343E-002	  5.27767E-002	  5.42000E-002	
  1.20000E-002	  5.30848E-002	  5.41214E-002	  5.35223E-002	  5.21951E-002	  5.35466E-002	  5.27392E-002	  5.23843E-002	
  1.28000E-002	  5.22284E-002	  5.25372E-002	  5.16718E-002	  5.18558E-002	  5.24851E-002	  5.21211E-002	  5.26994E-002	
  1.44000E-002	  5.20838E-002	  5.27389E-002	  5.12118E-002	  5.22042E-002	  5.29060E-002	  5.11082E-002	  5.23337E-002	
  1.60000E-002	  5.14579E-002	  5.24442E-002	  5.06952E-002	  5.07617E-002	  5.15412E-002	  5.12957E-002	  5.20095E-002	
  1.76000E-002	  5.05617E-002	  5.09012E-002	  4.99735E-002	  5.10540E-002	  5.06456E-002	  4.98014E-002	  5.09948E-002	
  1.92000E-002	  5.00815E-002	  5.11601E-002	  4.84118E-002	  5.04139E-002	  5.04553E-002	  5.03037E-002	  4.97440E-002	
  2.08000E-002	  4.90239E-002	  4.97454E-002	  4.98596E-002	  4.87992E-002	  4.85555E-002	  4.81016E-002	  4.90820E-002	
  2.24000E-002	  4.87585E-002	  4.95664E-002	  4.85439E-002	  4.90764E-002	  4.87523E-002	  4.82791E-002	  4.83331E-002	
  2.40000E-002	  4.86858E-002	  4.95754E-002	  4.83912E-002	  4.84537E-002	  4.93286E-002	  4.74502E-002	  4.89160E-002	
  2.56000E-002	  4.81231E-002	  4.89783E-002	  4.75488E-002	  4.81473E-002	  4.83748E-002	  4.70814E-002	  4.86082E-002	
  2.88000E-002	  4.72931E-002	  4.76593E-002	  4.72555E-002	  4.71611E-002	  4.69139E-002	  4.64964E-002	  4.82726E-002	
  3.20000E-002	  4.61076E-002	  4.64745E-002	  4.61611E-002	  4.63590E-002	  4.62224E-002	  4.50646E-002	  4.63638E-002	
  3.52000E-002	  4.54837E-002	  4.60834E-002	  4.49496E-002	  4.52431E-002	  4.57333E-002	  4.51749E-002	  4.57178E-002	
  3.84000E-002	  4.50450E-002	  4.51778E-002	  4.45392E-002	  4.54135E-002	  4.50991E-002	  4.45278E-002	  4.55126E-002	
  4.16000E-002	  4.40336E-002	  4.47435E-002	  4.43629E-002	  4.35143E-002	  4.42663E-002	  4.34010E-002	  4.39138E-002	
  4.48000E-002	  4.33268E-002	  4.38187E-002	  4.30590E-002	  4.37315E-002	  4.33391E-002	  4.22657E-002	  4.37469E-002	
  4.80000E-002	  4.22395E-002	  4.28598E-002	  4.19350E-002	  4.19004E-002	  4.23102E-002	  4.25054E-002	  4.19259E-002	
  5.12000E-002	  4.17325E-002	  4.24995E-002	  4.12630E-002	  4.20891E-002	  4.18440E-002	  4.10582E-002	  4.16414E-002	
  5.76000E-002	  4.08201E-002	  4.12078E-002	  3.98685E-002	  4.06383E-002	  4.07895E-002	  4.04874E-002	  4.19289E-002	
  6.40000E-002	  3.94178E-002	  4.02602E-002	  3.88290E-002	  3.92524E-002	  3.98691E-002	  3.90088E-002	  3.92870E-002	
  7.04000E-002	  3.87016E-002	  3.94182E-002	  3.81110E-002	  3.88166E-002	  3.86970E-002	  3.78726E-002	  3.92942E-002	
  7.68000E-002	  3.72604E-002	  3.79864E-002	  3.67393E-002	  3.74818E-002	  3.71381E-002	  3.70473E-002	  3.71693E-002	
  8.32000E-002	  3.66717E-002	  3.67722E-002	  3.62037E-002	  3.65831E-002	  3.68302E-002	  3.65659E-002	  3.70750E-002	
  8.96000E-002	  3.55083E-002	  3.60792E-002	  3.48644E-002	  3.58549E-002	  3.54110E-002	  3.54112E-002	  3.54289E-002	
  9.60000E-002	  3.47456E-002	  3.49792E-002	  3.41780E-002	  3.49455E-002	  3.51327E-002	  3.42641E-002	  3.49741E-002	
  1.02400E-001	  3.39850E-002	  3.46875E-002	  3.34159E-002	  3.41186E-002	  3.39468E-002	  3.35971E-002	  3.41441E-002	
  1.15200E-001	  3.26155E-002	  3.34306E-002	  3.24119E-002	  3.26303E-002	  3.27313E-002	  3.20619E-002	  3.24271E-002	
  1.28000E-001	  3.10755E-002	  3.13004E-002	  3.04328E-002	  3.14395E-002	  3.13187E-002	  3.06668E-002	  3.12949E-002	
  1.40800E-001	  2.97951E-002	  3.07397E-002	  2.93800E-002	  2.95446E-002	  2.97746E-002	  2.93965E-002	  2.99351E-002	
  1.53600E-001	  2.87427E-002	  2.94248E-002	  2.80631E-002	  2.88880E-002	  2.90376E-002	  2.82036E-002	  2.88391E-002	
  1.66400E-001	  2.75591E-002	  2.77764E-002	  2.74346E-002	  2.76053E-002	  2.74872E-002	  2.73248E-002	  2.77265E-002	
  1.79200E-001	  2.67904E-002	  2.70273E-002	  2.64940E-002	  2.70599E-002	  2.65051E-002	  2.67652E-002	  2.68905E-002	
  1.92000E-001	  2.58755E-002	  2.64387E-002	  2.54787E-002	  2.60869E-002	  2.58826E-002	  2.51744E-002	  2.61917E-002	
  2.04800E-001	  2.48871E-002	  2.54107E-002	  2.46253E-002	  2.49122E-002	  2.47466E-002	  2.47193E-002	  2.49087E-002	
  2.30400E-001	  2.32758E-002	  2.37665E-002	  2.30962E-002	  2.32473E-002	  2.35026E-002	  2.27719E-002	  2.32704E-002	
  2.56000E-001	  2.18766E-002	  2.23847E-002	  2.15565E-002	  2.14496E-002	  2.18543E-002	  2.16850E-002	  2.23298E-002	
  2.81600E-001	  2.06911E-002	  2.13724E-002	  2.01400E-002	  2.05162E-002	  2.06670E-002	  2.05594E-002	  2.08917E-002	
  3.07200E-001	  1.95672E-002	  1.98938E-002	  1.93546E-002	  1.97125E-002	  1.96037E-002	  1.92641E-002	  1.95745E-002	
  3.32800E-001	  1.85664E-002	  1.86688E-002	  1.85852E-002	  1.84172E-002	  1.84219E-002	  1.83277E-002	  1.89775E-002	
  3.58400E-001	  1.78413E-002	  1.80622E-002	  1.78005E-002	  1.77269E-002	  1.78627E-002	  1.75682E-002	  1.80274E-002	
  3.84000E-001	  1.68287E-002	  1.70882E-002	  1.68686E-002	  1.67972E-002	  1.67649E-002	  1.62823E-002	  1.71710E-002	
  4.09600E-001	  1.61457E-002	  1.63906E-002	  1.62044E-002	  1.61860E-002	  1.61066E-002	  1.55877E-002	  1.63991E-002	
  4.60800E-001	  1.47533E-002	  1.51282E-002	  1.46102E-002	  1.48730E-002	  1.46164E-002	  1.43355E-002	  1.49568E-002	
  5.12000E-001	  1.37148E-002	  1.39785E-002	  1.36839E-002	  1.37902E-002	  1.34620E-002	  1.35396E-002	  1.38344E-002	
  5.63200E-001	  1.27693E-002	  1.31291E-002	  1.25436E-002	  1.28180E-002	  1.25494E-002	  1.27818E-002	  1.27938E-002	
  6.14400E-001	  1.18732E-002	  1.21976E-002	  1.17590E-002	  1.19181E-002	  1.16359E-002	  1.16829E-002	  1.20458E-002	
  6.65600E-001	  1.10755E-002	  1.12182E-002	  1.11635E-002	  1.11840E-002	  1.08295E-002	  1.08311E-002	  1.12268E-002	
  7.16800E-001	  1.04262E-002	  1.08980E-002	  1.03174E-002	  1.05059E-002	  1.00836E-002	  1.01341E-002	  1.06179E-002	
  7.68000E-001	  9.88266E-003	  1.02185E-002	  9.74537E-003	  9.95629E-003	  9.58136E-003	  9.68767E-003	  1.01068E-002	
  8.19200E-001	  9.30611E-003	  9.64737E-003	  9.05831E-003	  9.26102E-003	  9.08573E-003	  9.11937E-003	  9.66489E-003	
  9.21600E-001	  8.47464E-003	  8.88687E-003	  8.32250E-003	  8.32463E-003	  8.26783E-003	  8.31433E-003	  8.73171E-003	
  1.02400E+000	  7.73220E-003	  7.97113E-003	  7.69644E-003	  7.70136E-003	  7.34027E-003	  7.79483E-003	  7.88919E-003	
  1.12640E+000	  7.20111E-003	  7.54349E-003	  7.21567E-003	  7.21980E-003	  6.67150E-003	  7.29792E-003	  7.25831E-003	
  1.22880E+000	  6.52548E-003	  6.89023E-003	  6.57826E-003	  6.56340E-003	  6.18997E-003	  6.36363E-003	  6.56738E-003	
  1.33120E+000	  6.03130E-003	  6.40722E-003	  6.05648E-003	  6.01521E-003	  5.78707E-003	  6.08019E-003	  5.84162E-003	
  1.43360E+000	  5.60745E-003	  5.94465E-003	  5.44242E-003	  5.72185E-003	  5.05719E-003	  5.76231E-003	  5.71627E-003	
  1.53600E+000	  5.21383E-003	  5.50698E-003	  5.17583E-003	  5.35141E-003	  4.77223E-003	  5.45611E-003	  5.02040E-003	
  1.63840E+000	  5.00315E-003	  5.17633E-003	  5.07444E-003	  5.15986E-003	  4.48166E-003	  5.13262E-003	  4.99400E-003	
  1.84320E+000	  4.46287E-003	  4.50014E-003	  4.40403E-003	  4.48699E-003	  4.12282E-003	  4.67450E-003	  4.58871E-003	
  2.04800E+000	  3.98405E-003	  3.95144E-003	  3.94670E-003	  3.97794E-003	  3.84294E-003	  4.02737E-003	  4.15791E-003	
  2.25280E+000	  3.66705E-003	  3.64967E-003	  3.65379E-003	  3.68198E-003	  3.52628E-003	  3.76933E-003	  3.72126E-003	
  2.45760E+000	  3.45166E-003	  3.62721E-003	  3.47178E-003	  3.38947E-003	  3.26812E-003	  3.59291E-003	  3.36048E-003	
  2.66240E+000	  3.16982E-003	  3.38212E-003	  3.31257E-003	  2.99418E-003	  3.12116E-003	  3.21446E-003	  2.99444E-003	
  2.86720E+000	  2.98819E-003	  3.11848E-003	  3.09915E-003	  2.61679E-003	  3.13955E-003	  2.97183E-003	  2.98337E-003	
  3.07200E+000	  2.73109E-003	  2.82038E-003	  2.74851E-003	  2.69797E-003	  2.79441E-003	  2.69665E-003	  2.62860E-003	
  3.22560E+000	  2.58481E-003	  2.62544E-003	  2.63407E-003	  2.54311E-003	  2.49572E-003	  2.78478E-003	  2.42574E-003	
  3.63520E+000	  2.23509E-003	  2.20809E-003	  2.32797E-003	  2.43598E-003	  1.93300E-003	  2.37230E-003	  2.13322E-003	
  4.04480E+000	  2.07270E-003	  2.22213E-003	  2.09206E-003	  2.12584E-003	  1.97096E-003	  2.02059E-003	  2.00459E-003	
  4.45440E+000	  1.88141E-003	  2.08549E-003	  1.96172E-003	  1.85575E-003	  1.96983E-003	  1.66521E-003	  1.75048E-003	
  4.86400E+000	  1.71171E-003	  1.98067E-003	  1.87305E-003	  1.66482E-003	  1.64255E-003	  1.46388E-003	  1.64531E-003	
  5.27360E+000	  1.57574E-003	  1.96350E-003	  1.48785E-003	  1.44691E-003	  1.62415E-003	  1.50710E-003	  1.42495E-003	
  5.68320E+000	  1.45059E-003	  1.73975E-003	  1.37453E-003	  1.26589E-003	  1.56415E-003	  1.43661E-003	  1.32264E-003	
  6.09280E+000	  1.27847E-003	  1.51614E-003	  1.17752E-003	  1.21376E-003	  1.18395E-003	  1.24906E-003	  1.33041E-003	
  6.50240E+000	  1.13412E-003	  1.36037E-003	  1.05939E-003	  1.20739E-003	  1.11133E-003	  8.48357E-004	  1.21788E-003	
  7.32160E+000	  1.02245E-003	  1.21956E-003	  8.96557E-004	  1.08979E-003	  1.10843E-003	  9.30947E-004	  8.89393E-004	
  8.14080E+000	  8.79442E-004	  1.05146E-003	  8.38694E-004	  6.97054E-004	  9.20097E-004	  8.45297E-004	  9.24051E-004	
  8.96000E+000	  7.38417E-004	  9.71139E-004	  6.58036E-004	  4.20774E-004	  8.37444E-004	  7.89667E-004	  7.53442E-004	
  9.77920E+000	  6.78137E-004	  8.13603E-004	  6.99205E-004	  5.30536E-004	  9.08711E-004	  5.47630E-004	  5.69136E-004	
  1.05984E+001	  6.82259E-004	  6.91230E-004	  7.04160E-004	  6.15539E-004	  7.45877E-004	  5.97991E-004	  7.38760E-004	
  1.14176E+001	  7.15761E-004	  5.08971E-004	  5.21426E-004	  7.61298E-004	  8.65917E-004	  9.14176E-004	  7.22776E-004	
  1.22368E+001	  6.57629E-004	  4.67924E-004	  4.55407E-004	  5.93016E-004	  6.87449E-004	  7.77770E-004	  9.64209E-004	
  1.30560E+001	  5.83426E-004	  5.79272E-004	  1.55039E-004	  7.57911E-004	  7.02064E-004	  6.35524E-004	  6.70746E-004	
  1.46944E+001	  5.46131E-004	  6.34275E-004	  1.88491E-004	  5.91034E-004	  5.97656E-004	  7.78019E-004	  4.87309E-004	
  1.63328E+001	  5.45502E-004	  5.51144E-004	  2.24411E-004	  4.08549E-004	  7.86448E-004	  7.78397E-004	  5.24066E-004	
  1.79712E+001	  4.27841E-004	  3.86025E-004	  2.03068E-004	  3.27047E-004	  5.15963E-004	  6.40992E-004	  4.93951E-004	
  1.96096E+001	  3.87866E-004	  6.23221E-004	  1.34406E-004	  3.92885E-004	  4.62221E-004	  4.36852E-004	  2.77612E-004	
  2.12480E+001	  4.23335E-004	  5.83520E-004	  1.21549E-004	  5.57287E-004	  5.42264E-004	  4.24712E-004	  3.10675E-004	
  2.28864E+001	  2.89615E-004	  2.13092E-004	  2.46261E-004	  2.20045E-004	  3.19896E-004	  3.23159E-004	  4.15236E-004	
  2.45248E+001	  3.21564E-004	  1.39900E-004	  1.54592E-004	  4.81704E-004	  3.45132E-004	  3.21554E-004	  4.86504E-004	
  2.61632E+001	  1.54039E-004	  6.26281E-005	  1.15738E-004	  2.22192E-004	  7.32235E-005	  9.54005E-005	  3.55049E-004	
  2.94400E+001	  1.31044E-004	  6.28585E-005	  1.43842E-004	  6.66601E-005	  1.94800E-004	  5.86140E-005	  2.59491E-004	
  3.27168E+001	  1.76745E-004	  5.92031E-005	  4.44894E-006	  1.27013E-004	  1.88891E-004	  2.38494E-004	  4.42421E-004	
  3.59936E+001	  8.97566E-005	 -4.85753E-005	  9.24543E-005	  1.85792E-004	  1.02533E-004	 -2.48864E-005	  2.31221E-004	
  3.92704E+001	  9.47460E-005	  2.13060E-005	 -2.03732E-004	  1.74404E-004	  4.11625E-005	  7.77064E-005	  4.57630E-004	
  4.25472E+001	  2.03226E-005	  1.00780E-005	 -3.05044E-004	  3.95950E-005	 -6.00343E-005	  6.05042E-005	  3.76836E-004	
  4.58240E+001	 -2.04970E-005	  2.71663E-005	 -3.12340E-004	 -6.39424E-005	 -8.34997E-005	  1.78832E-004	  1.30802E-004	
  4.91008E+001	  4.15593E-005	  4.92413E-005	 -1.73590E-004	 -1.13644E-005	  2.42725E-005	  3.24086E-004	  3.67101E-005	
  5.23776E+001	  8.68953E-005	  1.30384E-004	 -7.78082E-005	  5.42926E-005	  1.22119E-004	  2.46607E-004	  4.57774E-005	
  5.89312E+001	  5.31782E-005	  1.07299E-004	 -1.27229E-004	  2.11024E-004	  1.14018E-004	  1.11573E-004	 -9.76150E-005	
  6.54848E+001	 -2.35080E-005	 -1.16508E-005	  1.71212E-005	 -1.09701E-004	  1.41597E-005	  9.05328E-005	 -1.41510E-004	
  7.20384E+001	 -3.86044E-005	 -9.67403E-005	 -1.09273E-004	  1.12153E-004	 -5.09336E-005	  1.06106E-004	 -1.92938E-004	
  7.85920E+001	  4.41679E-005	  3.74022E-005	  4.07789E-005	  4.24398E-005	  5.74774E-006	  1.80231E-004	 -4.15928E-005	
  8.51456E+001	  6.58565E-005	 -9.34908E-005	  1.18440E-004	 -4.08391E-006	  9.09242E-005	  3.22975E-004	 -3.96254E-005	
  9.16992E+001	  5.01541E-005	 -1.13209E-004	  1.64042E-004	  7.80776E-005	  2.17070E-004	 -4.37300E-005	 -1.32655E-006	
  9.82528E+001	  1.61228E-004	  5.62967E-005	  3.76930E-005	  4.34100E-004	  1.93741E-004	  4.99180E-005	  1.95618E-004	
  1.04806E+002	  9.79531E-005	  4.00886E-005	  1.88666E-004	  2.30312E-004	  1.98509E-005	  1.62693E-004	 -5.38917E-005	
  1.17914E+002	  1.27345E-004	  1.27155E-004	  2.43254E-004	 -9.64033E-006	  7.63988E-005	  1.91047E-004	  1.35859E-004	
  1.31021E+002	  9.33836E-006	 -6.21380E-005	  6.15148E-005	 -5.87738E-005	  1.26826E-004	  1.36042E-005	 -2.50033E-005	
  1.44128E+002	  2.57108E-005	  1.18574E-005	  2.55832E-004	  1.03971E-005	  1.09220E-004	 -1.50231E-004	 -8.28109E-005	
  1.57235E+002	  7.33576E-005	  1.75749E-004	  7.29920E-005	  5.48709E-005	  7.35746E-005	 -7.94546E-005	  1.42414E-004	
  1.70342E+002	 -9.21960E-006	  1.25512E-004	  4.15396E-005	  4.44832E-005	 -2.01099E-004	 -1.09717E-004	  4.39633E-005	
  1.83450E+002	  5.34038E-005	 -2.99674E-005	 -2.55233E-005	  3.66314E-005	  5.79459E-005	  1.53243E-004	  1.28093E-004	
  1.96557E+002	  4.10991E-005	  3.80035E-005	 -1.27744E-004	 -7.55192E-005	  1.18258E-004	  1.47715E-004	  1.45880E-004	
  2.09664E+002	  3.42808E-006	 -1.77396E-004	  4.77428E-005	 -9.88965E-005	  5.36230E-005	  6.40545E-005	  1.31441E-004	
  2.35878E+002	  3.24336E-006	  8.86358E-005	  8.23423E-006	  7.10224E-005	 -4.31827E-005	 -1.07463E-004	  2.21358E-006	
  2.62093E+002	 -3.82413E-006	 -2.91026E-005	  1.20464E-004	 -2.66870E-005	  7.69231E-005	 -9.18371E-005	 -7.27056E-005	
  2.88307E+002	 -2.82080E-005	 -1.19689E-005	  9.84869E-006	  1.33665E-004	 -9.99864E-005	 -9.03655E-005	 -1.10441E-004	
  3.14522E+002	 -2.64882E-005	 -1.32926E-004	  6.33781E-005	  3.15394E-005	  2.19589E-005	 -3.60892E-005	 -1.06791E-004	
  3.40736E+002	  2.81821E-006	 -2.61623E-005	  7.87171E-005	  1.65482E-006	  1.48935E-004	 -9.31368E-005	 -9.30986E-005	
  3.66950E+002	  3.81591E-005	  3.10631E-005	  4.77451E-005	 -7.88114E-007	  9.49143E-005	  1.18318E-004	 -6.22977E-005	
  3.93165E+002	  6.44498E-005	 -4.35729E-005	  9.78337E-005	  1.28057E-005	  2.25573E-004	 -1.09773E-004	  2.03832E-004	
  4.19379E+002	  3.16711E-005	 -5.62055E-005	 -6.75104E-006	 -1.28250E-007	  2.92051E-005	  6.11379E-005	  1.62769E-004	
  4.71808E+002	  2.79611E-005	  2.48052E-005	  1.08432E-004	 -2.51203E-005	  5.34628E-005	  5.43806E-005	 -4.81938E-005	
  5.24237E+002	 -1.44163E-005	 -6.06277E-005	  1.41186E-005	 -6.77065E-005	  7.28178E-005	  7.09383E-005	 -1.16038E-004	
  5.76666E+002	  3.27165E-005	  6.48352E-005	 -5.93784E-005	  1.85296E-005	  6.73232E-005	  4.74039E-005	  5.75858E-005	
  6.29094E+002	  4.43540E-005	  6.95792E-005	  3.14507E-005	  9.45458E-005	 -4.87354E-005	 -7.03600E-006	  1.26320E-004	
  6.81523E+002	 -4.02109E-005	 -7.84594E-005	 -8.03538E-005	 -5.56925E-005	 -1.11907E-006	 -2.75479E-006	 -2.28858E-005	
  7.33952E+002	  3.97181E-005	  7.99319E-005	  1.45768E-005	 -1.39021E-005	  4.05103E-005	  1.49485E-004	 -3.22936E-005	
  7.86381E+002	 -1.12275E-005	 -2.91334E-005	 -7.45372E-005	 -1.26039E-004	  1.32583E-005	  1.13528E-004	  3.55579E-005	
  8.38810E+002	 -4.15378E-005	 -3.34963E-005	 -3.21402E-005	 -1.86708E-004	 -4.36378E-005	  1.19532E-005	  3.48027E-005	
  9.43667E+002	 -2.96242E-005	  6.90996E-006	 -1.43359E-005	 -3.96760E-005	 -4.17541E-005	 -2.21768E-005	 -6.67124E-005	
  1.04852E+003	  3.19213E-005	  5.04834E-005	  3.81079E-005	  3.05596E-005	  1.25021E-005	 -3.09788E-007	  6.01843E-005	
  1.15338E+003	  1.20053E-005	  7.23194E-005	  7.55021E-006	 -2.82709E-005	 -6.24329E-005	  1.20156E-004	 -3.72901E-005	
  1.25824E+003	 -7.63560E-006	 -1.00609E-004	  5.14149E-006	  2.02164E-005	  1.91946E-005	 -4.92370E-005	  5.94798E-005	
  1.36310E+003	 -2.10734E-005	 -1.61045E-005	 -7.41556E-006	 -4.79944E-005	 -1.44115E-005	  3.27131E-005	 -7.32278E-005	
  1.46796E+003	 -5.30080E-005	  5.32644E-006	 -4.13888E-005	 -9.48677E-005	 -1.34481E-004	 -1.42070E-005	 -3.84295E-005	
  1.57281E+003	  2.53868E-006	  8.83739E-005	 -5.23579E-006	  3.24003E-005	 -9.50118E-005	 -1.57644E-006	 -3.71809E-006	
  1.67767E+003	 -1.13379E-005	  3.48605E-005	  2.93819E-006	  5.58759E-005	 -5.40458E-005	 -5.62768E-005	 -5.13794E-005	
  1.88739E+003	 -2.15305E-005	 -1.39399E-005	  1.45814E-005	 -1.06370E-004	  3.37175E-006	  2.75745E-005	 -5.44004E-005	
  2.09710E+003	  9.89957E-006	  7.23126E-005	 -3.95534E-005	 -3.22431E-006	  8.43915E-006	 -4.62336E-006	  2.60467E-005	
  2.30682E+003	 -6.87665E-007	 -7.12492E-005	  7.02622E-006	  4.45464E-005	  5.66771E-005	  1.89932E-005	 -6.01197E-005	
  2.51653E+003	 -1.76019E-005	 -4.11258E-005	 -5.52938E-005	 -2.23366E-005	  1.97553E-005	  3.48513E-005	 -4.14616E-005	
  2.72625E+003	  2.58835E-005	 -2.95629E-005	  5.47454E-005	  8.01985E-005	  1.87917E-005	  4.11653E-005	 -1.00369E-005	
  2.93596E+003	 -1.13305E-005	 -4.41078E-008	  2.98416E-005	  4.52406E-005	 -8.77469E-006	 -6.55330E-005	 -6.87137E-005	
  3.14568E+003	  6.51586E-006	  3.56571E-005	 -2.33390E-005	  7.40719E-006	 -4.10174E-006	  5.92552E-005	 -3.57836E-005	
  3.35539E+003	  2.22864E-006	  4.20304E-005	 -1.15477E-005	 -1.72509E-005	 -1.26645E-006	  1.94368E-005	 -1.80304E-005	
  3.77482E+003	  3.72759E-006	 -3.67269E-005	  4.74718E-005	 -5.18480E-005	  1.14936E-005	  6.12028E-005	 -9.22775E-006	
  4.19425E+003	  2.47953E-005	 -2.10435E-005	  4.60694E-005	 -9.53973E-006	  2.80394E-005	  2.66044E-005	  7.86416E-005	
  4.61368E+003	  2.60680E-005	 -4.92820E-005	  2.73567E-005	  3.86037E-005	  2.46862E-005	  2.19409E-005	  9.31022E-005	
  5.03311E+003	  1.08457E-005	  2.68004E-005	 -3.77443E-005	  1.02738E-005	 -4.70008E-006	  4.31053E-005	  2.73390E-005	
  5.45254E+003	 -3.08326E-005	 -5.25828E-005	 -3.72181E-005	 -1.89898E-005	  3.77389E-006	 -3.45335E-005	 -4.54454E-005	
  5.87197E+003	  2.35708E-005	  2.99479E-005	 -1.60218E-005	  8.84730E-006	  2.90662E-005	  3.04462E-005	  5.91387E-005	
  6.29140E+003	 -2.08257E-005	 -3.67506E-005	 -3.53510E-005	 -4.92500E-005	 -2.89652E-005	 -2.51028E-005	  5.04656E-005	

"Count Rate"
       0.11719	     267.35104
       0.23438	     254.97330
       0.35156	     277.88495
       0.46875	     263.43286
       0.58594	     280.20685
       0.70313	     260.05243
       0.82031	     268.78516
       0.93750	     259.42929
       1.05469	     271.96924
       1.17188	     274.52161
       1.28906	     264.49136
       1.40625	     259.21588
       1.52344	     265.68646
       1.64063	     267.82910
       1.75781	     260.45364
       1.87500	     274.78625
       1.99219	     269.93759
       2.10938	     272.83142
       2.22656	     286.89084
       2.34375	     270.42416
       2.46094	     268.64859
       2.57813	     274.29968
       2.69531	     243.97842
       2.81250	     256.74033
       2.92969	     271.39731
       3.04688	     271.96924
       3.16406	     280.23245
       3.28125	     274.22284
       3.39844	     276.91180
       3.51563	     262.74994
       3.63281	     266.04498
       3.75000	     260.53903
       3.86719	     261.93045
       3.98438	     256.33057
       4.10156	     264.40601
       4.21875	     249.80878
       4.33594	     259.69391
       4.45313	     266.63400
       4.57031	     258.13174
       4.68750	     276.48499
       4.80469	     253.22334
       4.92188	     269.65588
       5.03906	     260.12073
       5.15625	     270.44977
       5.27344	     268.69980
       5.39063	     275.06793
       5.50781	     264.15845
       5.62500	     272.72897
       5.74219	     270.62048
       5.85938	     261.71704
       5.97656	     271.31195
       6.09375	     270.18512
       6.21094	     272.13144
       6.32813	     269.06686
       6.44531	     265.86572
       6.56250	     266.24133
       6.67969	     269.45102
       6.79688	     265.11453
       6.91406	     267.47910
       7.03125	     281.19708
       7.14844	     283.20313
       7.26563	     256.41595
       7.38281	     255.69035
       7.50000	     279.35321
       7.61719	     264.81573
       7.73438	     261.60608
       7.85156	     259.04514
       7.96875	     277.97031
       8.08594	     270.56073
       8.20313	     270.34732
       8.32031	     278.82394
       8.43750	     254.58063
       8.55469	     264.73038
       8.67188	     264.30356
       8.78906	     262.90359
       8.90625	     264.97794
       9.02344	     269.07541
       9.14063	     269.34003
       9.25781	     266.51450
       9.37500	     263.65479
       9.49219	     278.03006
       9.60938	     274.04358
       9.72656	     262.86945
       9.84375	     272.94238
       9.96094	     270.57782
      10.07813	     251.49899
      10.19531	     272.22534
      10.31250	     262.70724
      10.42969	     261.25607
      10.54688	     263.26212
      10.66406	     273.03629
      10.78125	     267.24008
      10.89844	     269.52783
      11.01563	     265.78036
      11.13281	     269.39124
      11.25000	     259.02808
      11.36719	     268.22177
      11.48438	     279.52393
      11.60156	     268.10226
      11.71875	     287.04449
      11.83594	     279.86539
      11.95313	     267.46204
      12.07031	     265.19989
      12.18750	     273.94113
      12.30469	     273.70212
      12.42188	     265.95108
      12.53906	     279.78003
      12.65625	     267.62421
      12.77344	     266.28400
      12.89063	     268.73395
      13.00781	     268.06812
      13.12500	     259.62561
      13.24219	     272.35336
      13.35938	     261.67435
      13.47656	     270.63757
      13.59375	     271.84973
      13.71094	     262.46823
      13.82813	     271.68753
      13.94531	     274.00943
      14.06250	     262.18655
      14.17969	     265.02914
      14.29688	     263.71454
      14.41406	     259.74515
      14.53125	     272.42166
      14.64844	     260.25732
      14.76563	     256.02328
      14.88281	     265.19989
      15.00000	     263.12555
      15.11719	     274.47894
      15.23438	     267.06082
      15.35156	     246.89787
      15.46875	     269.69003
      15.58594	     283.31409
      15.70313	     277.68863
      15.82031	     257.43176
      15.93750	     279.08859
      16.05469	     281.53000
      16.17188	     275.10208
      16.28906	     267.95712
      16.40625	     268.89615
      16.52344	     264.28650
      16.64063	     269.16077
      16.75781	     277.44107
      16.87500	     265.84012
      16.99219	     274.64111
      17.10938	     273.23264
      17.22656	     279.01175
      17.34375	     259.89880
      17.46094	     272.91678
      17.57813	     265.35355
      17.69531	     275.48624
      17.81250	     281.76047
      17.92969	     267.70105
      18.04688	     277.68008
      18.16406	     277.25327
      18.28125	     279.41296
      18.39844	     269.78394
      18.51563	     279.33615
      18.63281	     260.63290
      18.75000	     275.02527
      18.86719	     264.95233
      18.98438	     262.34021
      19.10156	     262.06702
      19.21875	     265.85718
      19.33594	     271.23511
      19.45313	     262.38287
      19.57031	     264.64502
      19.68750	     257.32935
      19.80469	     262.89505
      19.92188	     284.03116
      20.03906	     261.39267
      20.15625	     252.81358
      20.27344	     262.52798
      20.39063	     278.17520
      20.50781	     278.71298
      20.62500	     264.41455
      20.74219	     272.78018
      20.85938	     270.44122
      20.97656	     255.76718
      21.09375	     273.12164
      21.21094	     278.62762
      21.32813	     271.29486
      21.44531	     272.53265
      21.56250	     264.60233
      21.67969	     253.80380
      21.79688	     270.68024
      21.91406	     276.90326
      22.03125	     284.37262
      22.14844	     273.74481
      22.26563	     259.50610
      22.38281	     275.33258
      22.50000	     264.73892
      22.61719	     272.01193
      22.73438	     272.88263
      22.85156	     268.23883
      22.96875	     276.00696
      23.08594	     261.45242
      23.20313	     261.87924
      23.32031	     278.15811
      23.43750	     258.36224
      23.55469	     263.05725
      23.67188	     270.96194
      23.78906	     260.82925
      23.90625	     251.02948
      24.02344	     265.02914
      24.14063	     263.84259
      24.25781	     262.14386
      24.37500	     271.86679
      24.49219	     271.42291
      24.60938	     269.88635
      24.72656	     272.52411
      24.84375	     265.16574
      24.96094	     271.71313
      25.07813	     253.23187
      25.19531	     262.61337
      25.31250	     259.95001
      25.42969	     275.48624
      25.54688	     275.93866
      25.66406	     262.16946
      25.78125	     263.55237
      25.89844	     253.86357
      26.01563	     280.79587
      26.13281	     275.49475
      26.25000	     272.95947
      26.36719	     269.47662
      26.48438	     280.72757
      26.60156	     280.44586
      26.71875	     263.97919
      26.83594	     271.84119
      26.95313	     258.46469
      27.07031	     262.66458
      27.18750	     263.67188
      27.30469	     278.50812
      27.42188	     261.11951
      27.53906	     267.49619
      27.65625	     270.27051
      27.77344	     271.39731
      27.89063	     259.89880
      28.00781	     264.04749
      28.12500	     255.92937
      28.24219	     261.66583
      28.35938	     266.79620
      28.47656	     278.84103
      28.59375	     263.42432
      28.71094	     253.79527
      28.82813	     271.96069
      28.94531	     268.95590
      29.06250	     278.47397
      29.17969	     272.64362
      29.29688	     272.97653
      29.41406	     262.22067
      29.53125	     277.19351
      29.64844	     262.79263
      29.76563	     277.03986
      29.88281	     262.13531
