ALV-5000/E-WIN Data
Date :	"20-Jan-09"
Time :	"11:02:15"
Samplename : 	""
SampMemo(0) : 	""
SampMemo(1) : 	""
SampMemo(2) : 	""
SampMemo(3) : 	""
SampMemo(4) : 	""
SampMemo(5) : 	""
SampMemo(6) : 	""
SampMemo(7) : 	""
SampMemo(8) : 	""
SampMemo(9) : 	""
Temperature [K] :	     298.16000
Viscosity [cp]  :	       0.89000
Refractive Index:	       1.33200
Wavelength [nm] :	       0.00000
Angle [°]       :	       0.00000
Duration [s]    :	        10
Runs            :	         6
Mode            :	"SINGLE AUTO CH0"
MeanCR0 [kHz]   :	      18.43670
MeanCR1 [kHz]   :	       0.00000

"Correlation (Multi, Averaged)"
"Lag [ms]"	"Average"	" 1,  18.014"	" 2,  18.126"	" 3,  18.186"	" 4,  18.347"	" 5,  18.251"	" 6,  18.437"	
  2.00000E-004	  6.07781E-001	  5.84455E-001	  6.43746E-001	  6.39238E-001	  5.78191E-001	  6.22879E-001	  5.78179E-001	
  4.00000E-004	  3.09122E-001	  3.43273E-001	  2.65148E-001	  2.92898E-001	  2.97966E-001	  3.31912E-001	  3.23535E-001	
  6.00000E-004	  2.37553E-001	  2.41050E-001	  2.55683E-001	  1.91034E-001	  2.02505E-001	  2.58781E-001	  2.76266E-001	
  8.00000E-004	  2.73581E-001	  2.95356E-001	  2.63570E-001	  2.92898E-001	  2.33299E-001	  2.57225E-001	  2.99138E-001	
  1.00000E-003	  2.17121E-001	  2.31466E-001	  2.49373E-001	  2.25511E-001	  1.51695E-001	  2.38554E-001	  2.06125E-001	
  1.20000E-003	  2.03976E-001	  2.47439E-001	  2.14668E-001	  2.39615E-001	  2.62553E-001	  1.32748E-001	  1.26835E-001	
  1.40000E-003	  1.89660E-001	  1.65980E-001	  2.03626E-001	  2.38048E-001	  1.57853E-001	  2.10546E-001	  1.61905E-001	
  1.60000E-003	  1.97578E-001	  1.89938E-001	  1.95738E-001	  1.67526E-001	  2.24060E-001	  1.68535E-001	  2.39671E-001	
  1.80000E-003	  1.64219E-001	  1.97924E-001	  1.67343E-001	  1.76929E-001	  2.04044E-001	  9.85163E-002	  1.40558E-001	
  2.00000E-003	  1.51493E-001	  1.97924E-001	  2.06781E-001	  1.23646E-001	  9.16464E-002	  1.52975E-001	  1.35984E-001	
  2.20000E-003	  1.86369E-001	  2.60217E-001	  2.24133E-001	  1.48721E-001	  1.76330E-001	  1.54531E-001	  1.54281E-001	
  2.40000E-003	  1.93872E-001	  2.21883E-001	  1.91006E-001	  2.12974E-001	  1.51695E-001	  1.85651E-001	  2.00026E-001	
  2.60000E-003	  1.98563E-001	  2.05911E-001	  1.95738E-001	  2.12974E-001	  1.73250E-001	  1.62311E-001	  2.41196E-001	
  2.80000E-003	  1.70948E-001	  1.59591E-001	  9.79337E-002	  1.98869E-001	  1.96346E-001	  1.59199E-001	  2.13749E-001	
  3.00000E-003	  1.93365E-001	  1.35632E-001	  2.20978E-001	  2.33347E-001	  2.51775E-001	  1.79427E-001	  1.39033E-001	
  3.20000E-003	  1.98297E-001	  1.64369E-001	  2.20992E-001	  1.75349E-001	  2.18672E-001	  2.02002E-001	  2.08399E-001	
  3.60000E-003	  1.82391E-001	  2.05098E-001	  1.62624E-001	  2.13743E-001	  2.24060E-001	  1.45986E-001	  1.42832E-001	
  4.00000E-003	  1.91021E-001	  2.26660E-001	  2.11527E-001	  1.37738E-001	  1.64782E-001	  1.81774E-001	  2.23647E-001	
  4.40000E-003	  1.80334E-001	  2.23466E-001	  1.54737E-001	  1.53409E-001	  1.67861E-001	  1.80996E-001	  2.01537E-001	
  4.80000E-003	  1.73577E-001	  1.08467E-001	  1.57892E-001	  1.32253E-001	  2.10203E-001	  2.09004E-001	  2.23647E-001	
  5.20000E-003	  1.72009E-001	  1.04474E-001	  1.47638E-001	  1.83184E-001	  2.33299E-001	  1.80218E-001	  1.83239E-001	
  5.60000E-003	  1.70672E-001	  1.28432E-001	  1.87864E-001	  1.62028E-001	  1.65552E-001	  2.14450E-001	  1.65704E-001	
  6.00000E-003	  1.62929E-001	  1.89925E-001	  1.80765E-001	  1.87102E-001	  1.50925E-001	  1.00863E-001	  1.67992E-001	
  6.40000E-003	  1.65351E-001	  1.63584E-001	  1.51910E-001	  1.74977E-001	  2.03632E-001	  1.67381E-001	  1.30621E-001	
  7.20000E-003	  1.40576E-001	  2.00320E-001	  1.53882E-001	  1.20904E-001	  1.14717E-001	  1.40930E-001	  1.12705E-001	
  8.00000E-003	  1.46712E-001	  1.94730E-001	  1.57431E-001	  1.26389E-001	  1.41282E-001	  1.38207E-001	  1.22235E-001	
  8.80000E-003	  1.48426E-001	  1.40823E-001	  1.62558E-001	  1.35008E-001	  1.30120E-001	  1.49876E-001	  1.72172E-001	
  9.60000E-003	  1.30440E-001	  9.25134E-002	  1.33770E-001	  1.18161E-001	  1.44362E-001	  1.49487E-001	  1.44344E-001	
  1.04000E-002	  1.57256E-001	  1.44823E-001	  2.07908E-001	  1.67918E-001	  1.06640E-001	  1.83719E-001	  1.32527E-001	
  1.12000E-002	  1.33156E-001	  1.32045E-001	  1.33776E-001	  1.33833E-001	  1.40897E-001	  1.30816E-001	  1.27572E-001	
  1.20000E-002	  1.32021E-001	  1.19666E-001	  1.19185E-001	  9.73964E-002	  1.39358E-001	  1.59212E-001	  1.57305E-001	
  1.28000E-002	  1.30188E-001	  1.22243E-001	  1.19223E-001	  1.16764E-001	  1.51284E-001	  1.40599E-001	  1.31015E-001	
  1.44000E-002	  1.26505E-001	  1.29031E-001	  1.24745E-001	  1.26363E-001	  1.01245E-001	  1.65885E-001	  1.11765E-001	
  1.60000E-002	  1.21408E-001	  1.46201E-001	  1.19421E-001	  9.18865E-002	  1.35695E-001	  1.04420E-001	  1.30825E-001	
  1.76000E-002	  1.15462E-001	  1.03076E-001	  1.38350E-001	  1.19899E-001	  1.07788E-001	  1.06365E-001	  1.17292E-001	
  1.92000E-002	  1.03163E-001	  1.00481E-001	  8.09695E-002	  1.20486E-001	  1.16449E-001	  8.73035E-002	  1.13290E-001	
  2.08000E-002	  1.05997E-001	  7.93175E-002	  9.81246E-002	  1.10496E-001	  1.09905E-001	  1.15507E-001	  1.22629E-001	
  2.24000E-002	  1.09529E-001	  9.70865E-002	  1.22378E-001	  1.16764E-001	  9.98974E-002	  1.18814E-001	  1.02235E-001	
  2.40000E-002	  9.12964E-002	  8.09147E-002	  8.45188E-002	  1.14218E-001	  7.96893E-002	  8.94431E-002	  9.89947E-002	
  2.56000E-002	  9.41648E-002	  9.57142E-002	  7.53435E-002	  1.04240E-001	  9.99161E-002	  1.03532E-001	  8.62429E-002	
  2.88000E-002	  9.64445E-002	  1.22568E-001	  8.74704E-002	  9.55229E-002	  7.87453E-002	  8.98197E-002	  1.04541E-001	
  3.20000E-002	  8.59328E-002	  8.05403E-002	  6.73576E-002	  9.12133E-002	  9.22176E-002	  9.03060E-002	  9.39622E-002	
  3.52000E-002	  8.04444E-002	  6.99585E-002	  7.83013E-002	  8.30838E-002	  8.96194E-002	  9.13757E-002	  7.03276E-002	
  3.84000E-002	  8.07722E-002	  6.74628E-002	  9.55612E-002	  9.13112E-002	  8.50003E-002	  6.21998E-002	  8.30979E-002	
  4.16000E-002	  6.85524E-002	  7.86435E-002	  6.03636E-002	  6.43762E-002	  7.27790E-002	  7.39674E-002	  6.11846E-002	
  4.48000E-002	  7.32157E-002	  5.90772E-002	  8.71808E-002	  7.20159E-002	  6.30597E-002	  7.55235E-002	  8.24369E-002	
  4.80000E-002	  6.37327E-002	  6.31702E-002	  5.70115E-002	  6.35926E-002	  5.96917E-002	  6.27833E-002	  7.61470E-002	
  5.12000E-002	  6.53743E-002	  6.09933E-002	  6.03151E-002	  7.08654E-002	  6.73357E-002	  6.81626E-002	  6.45738E-002	
  5.76000E-002	  5.41459E-002	  5.65511E-002	  6.39628E-002	  4.68225E-002	  4.90055E-002	  4.96362E-002	  5.88974E-002	
  6.40000E-002	  5.42155E-002	  5.40555E-002	  4.88356E-002	  4.42762E-002	  5.80503E-002	  7.39066E-002	  4.61687E-002	
  7.04000E-002	  5.71067E-002	  6.75319E-002	  4.94764E-002	  6.65563E-002	  4.14040E-002	  5.85894E-002	  5.90820E-002	
  7.68000E-002	  4.55321E-002	  4.61753E-002	  4.15341E-002	  5.18661E-002	  4.79893E-002	  4.08468E-002	  4.47810E-002	
  8.32000E-002	  4.26526E-002	  3.84388E-002	  4.45410E-002	  5.07399E-002	  4.58302E-002	  3.52061E-002	  4.11595E-002	
  8.96000E-002	  4.08399E-002	  4.13337E-002	  4.39495E-002	  4.34438E-002	  3.34716E-002	  5.86926E-002	  2.41484E-002	
  9.60000E-002	  3.99381E-002	  3.56936E-002	  2.99992E-002	  4.48148E-002	  3.99783E-002	  4.74113E-002	  4.17313E-002	
  1.02400E-001	  3.90431E-002	  4.37776E-002	  3.68037E-002	  3.95390E-002	  3.75388E-002	  4.23536E-002	  3.42461E-002	
  1.15200E-001	  3.72410E-002	  3.78507E-002	  3.54975E-002	  3.64237E-002	  3.89339E-002	  3.66583E-002	  3.80817E-002	
  1.28000E-001	  3.00450E-002	  3.24290E-002	  2.43387E-002	  2.52838E-002	  3.60774E-002	  3.23975E-002	  2.97435E-002	
  1.40800E-001	  2.74102E-002	  3.21236E-002	  3.29589E-002	  3.21636E-002	  2.78269E-002	  1.84358E-002	  2.09527E-002	
  1.53600E-001	  2.78338E-002	  2.42122E-002	  2.67482E-002	  2.97339E-002	  2.88247E-002	  3.47442E-002	  2.27394E-002	
  1.66400E-001	  2.25267E-002	  2.21657E-002	  2.35195E-002	  1.53134E-002	  2.46152E-002	  2.62589E-002	  2.32873E-002	
  1.79200E-001	  2.30207E-002	  2.55349E-002	  2.02909E-002	  1.92610E-002	  2.62326E-002	  3.00031E-002	  1.68017E-002	
  1.92000E-001	  2.23005E-002	  1.21080E-002	  1.30262E-002	  2.63914E-002	  2.62086E-002	  3.22156E-002	  2.38534E-002	
  2.04800E-001	  2.14348E-002	  1.75807E-002	  1.68463E-002	  2.13334E-002	  2.48985E-002	  2.23492E-002	  2.56009E-002	
  2.30400E-001	  1.95992E-002	  1.60150E-002	  2.13812E-002	  1.97975E-002	  2.22406E-002	  1.54306E-002	  2.27304E-002	
  2.56000E-001	  1.52763E-002	  1.81673E-002	  1.67724E-002	  1.18043E-002	  1.90169E-002	  1.29391E-002	  1.29578E-002	
  2.81600E-001	  1.66612E-002	  2.16740E-002	  1.30878E-002	  1.64680E-002	  1.82110E-002	  1.53705E-002	  1.51556E-002	
  3.07200E-001	  1.34980E-002	  1.16214E-002	  1.64338E-002	  1.34446E-002	  9.63462E-003	  1.39180E-002	  1.59355E-002	
  3.32800E-001	  1.16281E-002	  9.63128E-003	  1.18620E-002	  7.86280E-003	  9.83340E-003	  1.53103E-002	  1.52685E-002	
  3.58400E-001	  1.21318E-002	  1.43743E-002	  7.51860E-003	  1.31630E-002	  1.23537E-002	  1.38880E-002	  1.14934E-002	
  3.84000E-001	  1.11417E-002	  9.02559E-003	  1.16591E-002	  9.52754E-003	  1.58236E-002	  1.24534E-002	  8.36089E-003	
  4.09600E-001	  1.05035E-002	  9.59102E-003	  1.09472E-002	  8.91520E-003	  1.41631E-002	  1.02414E-002	  9.16291E-003	
  4.60800E-001	  1.00065E-002	  8.66149E-003	  8.13794E-003	  1.29218E-002	  7.89590E-003	  1.18769E-002	  1.05450E-002	
  5.12000E-001	  4.24983E-003	  3.28443E-003	  4.72103E-004	  6.40014E-003	  1.43078E-003	  4.29594E-003	  9.61559E-003	
  5.63200E-001	  6.65688E-003	  9.56069E-003	  7.91650E-003	  4.38134E-003	  8.13582E-003	  2.71240E-004	  9.67571E-003	
  6.14400E-001	  4.06290E-003	  5.85510E-003	  3.00521E-003	  3.86159E-004	  5.03904E-003	  1.75544E-003	  8.33643E-003	
  6.65600E-001	  4.99724E-003	  7.32023E-003	  3.79398E-003	  4.82753E-003	  3.08954E-003	  5.08777E-003	  5.86437E-003	
  7.16800E-001	  3.15479E-003	  4.19569E-003	  1.19265E-003	  7.50055E-003	 -1.10212E-003	  2.87446E-003	  4.26752E-003	
  7.68000E-001	  5.92935E-003	  1.36300E-003	  6.42484E-003	  1.07483E-002	  8.76798E-004	  7.82819E-003	  8.33500E-003	
  8.19200E-001	  4.83046E-003	  2.66101E-004	  5.41527E-003	  6.31949E-003	  5.94141E-003	  7.97918E-003	  3.06132E-003	
  9.21600E-001	  3.27604E-003	  1.76464E-003	  1.90342E-003	  8.53362E-004	  5.54052E-003	  4.95423E-003	  4.64006E-003	
  1.02400E+000	  3.84806E-003	  1.25392E-003	  4.14718E-003	  6.77172E-003	  1.43929E-003	  3.99088E-003	  5.48539E-003	
  1.12640E+000	  3.14274E-003	  2.95832E-003	  3.50103E-003	  3.48261E-003	  3.02316E-003	  1.88672E-003	  4.00460E-003	
  1.22880E+000	  2.82591E-003	 -1.26499E-003	  6.22411E-003	  4.25288E-003	  3.01645E-003	  7.25385E-004	  4.00162E-003	
  1.33120E+000	  2.54535E-003	  4.05652E-003	  4.23568E-003	  2.39226E-003	 -1.54454E-003	  4.10641E-003	  2.02575E-003	
  1.43360E+000	  8.99309E-004	  2.61377E-005	  1.95801E-003	 -9.67445E-004	  5.35815E-004	  5.32780E-003	 -1.48447E-003	
  1.53600E+000	  1.09869E-003	 -5.23931E-004	  2.25336E-003	  2.50420E-003	 -1.23183E-003	  1.82896E-003	  1.76140E-003	
  1.63840E+000	  2.13570E-003	  1.04087E-003	  2.29219E-003	  1.78826E-003	  2.13554E-003	  1.75013E-003	  3.80723E-003	
  1.84320E+000	  1.73076E-003	  1.33969E-003	  2.46315E-003	  3.07456E-003	  1.86862E-004	  1.50989E-003	  1.81040E-003	
  2.04800E+000	  1.97703E-003	  4.44051E-004	  3.32890E-003	  1.37736E-003	  3.21808E-003	  2.38093E-003	  1.11285E-003	
  2.25280E+000	  2.01480E-003	  1.36837E-003	  2.72207E-003	  2.24696E-003	  5.61486E-004	  1.36654E-003	  3.82335E-003	
  2.45760E+000	  5.72867E-004	  5.72167E-004	  5.88287E-004	  1.77124E-003	  6.70308E-005	 -2.09179E-003	  2.53027E-003	
  2.66240E+000	  1.02051E-003	  1.52866E-003	 -6.52920E-004	  2.00099E-003	  6.33337E-004	  2.95656E-003	 -3.43563E-004	
  2.86720E+000	  1.75585E-003	  4.00599E-003	  1.95667E-003	 -6.72765E-007	 -1.22938E-003	  3.40635E-003	  2.39614E-003	
  3.07200E+000	  3.50854E-004	 -7.87661E-005	 -1.35245E-003	  1.19036E-003	  1.21812E-003	  1.57161E-003	 -4.43744E-004	
  3.22560E+000	  1.08178E-003	 -1.33383E-003	  1.93710E-003	  1.80195E-003	  2.94334E-003	  1.88042E-003	 -7.38278E-004	
  3.63520E+000	  5.90631E-004	  1.28511E-004	  2.92503E-003	 -4.06409E-004	 -4.65071E-004	  5.91087E-004	  7.70640E-004	
  4.04480E+000	  4.05582E-004	  9.31317E-004	 -2.40578E-004	 -7.05138E-004	  5.12948E-004	  7.11261E-004	  1.22368E-003	
  4.45440E+000	  2.47814E-004	 -2.66009E-003	  1.46491E-003	  1.15341E-003	 -5.93224E-005	  1.36389E-003	  2.24082E-004	
  4.86400E+000	  1.21257E-003	  6.77431E-004	  2.06279E-003	 -4.81732E-005	  1.71103E-003	  2.04720E-003	  8.25107E-004	
  5.27360E+000	  3.60201E-004	 -2.27778E-004	 -6.41018E-004	 -1.20923E-003	  1.65385E-003	  2.83637E-003	 -2.50991E-004	
  5.68320E+000	  4.93036E-004	  5.07978E-004	  4.54417E-004	  1.64388E-003	 -5.22668E-004	  1.11835E-003	 -2.43743E-004	
  6.09280E+000	  4.32922E-004	  8.97354E-004	  1.26638E-003	 -1.89036E-003	  2.22247E-003	  2.24715E-004	 -1.23024E-004	
  6.50240E+000	  7.35416E-004	  2.06171E-003	  6.93962E-004	 -5.04634E-004	  8.89293E-004	  2.20770E-003	 -9.35527E-004	
  7.32160E+000	  1.60119E-004	  1.07378E-003	 -2.61653E-004	 -5.39420E-004	  6.74619E-004	  5.85969E-004	 -5.72582E-004	
  8.14080E+000	  7.34170E-005	 -9.42369E-004	  1.41779E-003	  2.74086E-005	 -2.79786E-004	  1.68677E-004	  4.87810E-005	
  8.96000E+000	 -1.87191E-004	  1.36639E-003	 -1.27183E-003	  4.48388E-005	 -1.10247E-003	  7.85375E-004	 -9.45456E-004	
  9.77920E+000	  2.60563E-005	  1.20006E-003	 -7.32933E-005	  1.41916E-003	  2.76840E-005	 -1.26284E-003	 -1.15443E-003	
  1.05984E+001	 -2.90874E-004	  2.33253E-004	  2.20050E-004	  7.00089E-004	  1.15518E-004	 -9.38354E-004	 -2.07580E-003	
  1.14176E+001	  2.39276E-004	  8.77754E-004	  3.76662E-004	 -3.97368E-004	  6.96751E-004	 -4.77874E-005	 -7.03594E-005	
  1.22368E+001	  4.56273E-004	  1.21755E-003	  1.38683E-003	 -1.26194E-003	 -1.10318E-003	  1.58460E-003	  9.13783E-004	
  1.30560E+001	  2.34327E-004	 -3.66609E-004	  1.28359E-003	  2.23219E-004	 -1.87742E-004	  5.11806E-004	 -5.83091E-005	
  1.46944E+001	  3.35008E-004	  2.83849E-004	  1.97229E-005	  2.37307E-004	  3.89931E-004	  1.02848E-004	  9.76388E-004	
  1.63328E+001	  5.69457E-004	  2.04598E-004	  3.19226E-004	  5.34659E-004	  9.69625E-004	 -1.59797E-004	  1.54843E-003	
  1.79712E+001	  4.45479E-004	  6.67021E-004	  4.90120E-004	 -2.49020E-004	  6.71772E-004	  7.82815E-004	  3.10163E-004	
  1.96096E+001	  6.05047E-004	 -7.38052E-005	  1.54911E-003	  3.15236E-004	  1.73672E-003	  1.29582E-004	 -2.65560E-005	
  2.12480E+001	  2.50527E-004	 -3.24820E-004	  5.94853E-004	  8.80071E-004	  4.82154E-005	  3.39070E-004	 -3.42296E-005	
  2.28864E+001	 -2.97371E-004	  9.25941E-005	 -1.30308E-003	  9.29730E-004	 -1.31336E-003	 -3.67567E-004	  1.77453E-004	
  2.45248E+001	  6.34986E-004	  3.50103E-004	  7.66374E-004	 -3.76537E-004	  5.58724E-004	  1.80544E-003	  7.05814E-004	
  2.61632E+001	  3.02242E-004	  2.64242E-004	  6.51767E-004	  1.18393E-004	 -1.12728E-004	  1.07502E-003	 -1.83244E-004	
  2.94400E+001	 -3.03743E-004	 -4.38982E-004	 -4.93223E-004	 -6.15775E-004	 -1.09868E-004	 -6.72360E-004	  5.07753E-004	
  3.27168E+001	 -1.64997E-004	 -6.95689E-004	  4.20492E-004	 -4.59098E-005	  7.31222E-005	 -1.60080E-004	 -5.81917E-004	
  3.59936E+001	 -1.41698E-004	  5.58693E-004	 -8.29903E-004	 -1.19305E-004	 -4.09468E-004	 -9.51212E-005	  4.49181E-005	
  3.92704E+001	  2.42129E-004	  1.22816E-003	 -5.56564E-004	  4.65013E-005	  1.74658E-004	  2.79276E-004	  2.80738E-004	
  4.25472E+001	  1.54608E-004	 -9.09994E-004	 -6.65836E-004	  9.55554E-004	  5.83461E-004	  1.71062E-004	  7.93404E-004	
  4.58240E+001	  1.80992E-004	  6.78584E-004	  2.66621E-004	  3.24634E-004	 -4.80778E-004	  1.05921E-004	  1.90967E-004	
  4.91008E+001	 -1.80406E-005	  1.31427E-003	  5.12717E-004	 -1.77316E-003	 -1.08106E-004	 -6.13823E-005	  7.42131E-006	
  5.23776E+001	  6.02165E-005	  3.05750E-004	  2.74297E-005	 -7.42923E-004	 -5.94366E-005	  4.43990E-004	  3.86488E-004	
  5.89312E+001	  1.82882E-004	  3.11923E-004	 -5.77059E-004	  5.44790E-004	  1.36919E-004	  5.69187E-004	  1.11534E-004	
  6.54848E+001	 -1.72506E-005	 -3.87253E-005	  5.71867E-004	  4.77249E-006	 -3.76572E-004	  4.85796E-005	 -3.13426E-004	
  7.20384E+001	  2.44954E-004	 -2.91566E-005	  3.73093E-004	  5.12148E-004	  4.44421E-004	  3.16479E-004	 -1.47262E-004	
  7.85920E+001	  1.40162E-004	 -8.18173E-005	 -8.89228E-004	  2.37479E-004	  2.96157E-004	  1.17183E-003	  1.06551E-004	
  8.51456E+001	 -6.67609E-005	 -3.79491E-004	 -2.87513E-004	  1.06983E-004	  5.41522E-004	 -4.01910E-004	  1.98449E-005	
  9.16992E+001	  7.72299E-005	 -4.23165E-004	  4.49724E-004	 -1.77621E-004	  6.80285E-004	 -3.86840E-004	  3.20996E-004	
  9.82528E+001	  2.65282E-005	 -3.05884E-004	 -7.43261E-004	  2.62638E-004	  8.84720E-004	  1.49003E-004	 -8.80465E-005	
  1.04806E+002	 -6.41475E-005	 -3.74555E-004	 -1.42937E-004	  1.70758E-004	  1.13893E-005	  3.18578E-004	 -3.68119E-004	
  1.17914E+002	  6.62760E-005	 -3.17411E-004	  4.58027E-004	 -8.43606E-005	 -1.24522E-004	  4.20393E-004	  4.55291E-005	
  1.31021E+002	  1.90296E-004	  2.60144E-004	  6.44055E-006	 -3.00832E-004	  2.90329E-004	  7.73261E-004	  1.12433E-004	
  1.44128E+002	 -1.56038E-004	 -5.70267E-005	 -8.73166E-005	  3.49821E-005	 -2.81751E-004	 -9.39664E-005	 -4.51148E-004	
  1.57235E+002	 -1.26202E-005	  2.53203E-004	 -3.75780E-005	 -2.36783E-004	 -2.48641E-004	  2.15076E-004	 -2.09982E-005	
  1.70342E+002	  3.41906E-005	  2.45643E-004	 -1.16551E-004	  1.46208E-004	  3.48964E-004	 -4.07566E-004	 -1.15539E-005	
  1.83450E+002	  2.42685E-005	  5.70252E-004	 -5.37795E-004	  2.01707E-004	  1.60286E-004	 -9.50985E-005	 -1.53740E-004	
  1.96557E+002	 -1.32722E-004	 -8.73888E-005	 -1.81301E-004	 -3.35955E-005	 -1.91240E-004	 -1.79811E-005	 -2.84829E-004	
  2.09664E+002	 -4.61776E-005	  1.19212E-004	 -1.18927E-004	 -2.24568E-005	 -2.73504E-004	  2.56795E-004	 -2.38185E-004	
  2.35878E+002	  1.68047E-004	  5.14899E-005	  3.13375E-004	 -2.69693E-004	  2.67116E-004	  3.47760E-004	  2.98235E-004	
  2.62093E+002	  9.94153E-005	 -2.14129E-004	  2.03923E-004	  1.05725E-004	 -4.61321E-005	  3.07486E-004	  2.39620E-004	
  2.88307E+002	  1.14429E-004	 -2.80147E-005	  2.31404E-004	  2.55018E-004	 -1.50561E-004	  2.86264E-004	  9.24622E-005	
  3.14522E+002	 -3.69525E-005	 -2.27493E-004	 -4.01329E-004	  2.08718E-004	  7.42299E-005	 -9.77810E-005	  2.21939E-004	
  3.40736E+002	 -1.01845E-005	 -1.29184E-004	 -2.27596E-004	 -1.79527E-004	  2.72032E-004	  1.89518E-004	  1.36494E-005	
  3.66950E+002	 -6.11569E-005	  1.86678E-004	 -3.84567E-004	  4.35753E-005	 -1.35883E-004	 -1.74327E-004	  9.75819E-005	
  3.93165E+002	 -7.38545E-005	 -1.92193E-004	 -8.78910E-005	  2.97503E-004	 -1.40465E-004	 -1.01673E-004	 -2.18408E-004	
  4.19379E+002	  3.72081E-005	  1.64722E-004	  2.73679E-004	  2.69175E-004	 -1.23777E-004	 -3.08998E-004	 -5.15525E-005	
  4.71808E+002	  1.09818E-004	  3.15404E-004	 -1.17858E-005	  2.55647E-004	  5.73259E-005	  1.27940E-004	 -8.56262E-005	
  5.24237E+002	  3.42130E-005	  1.59364E-004	  6.57598E-005	  1.58777E-006	 -2.41313E-005	 -1.30688E-004	  1.33386E-004	
  5.76666E+002	 -1.01729E-005	 -9.53086E-005	  1.82236E-004	 -3.45236E-005	  8.58060E-005	 -2.17332E-004	  1.80846E-005	
  6.29094E+002	 -4.30849E-005	  2.34744E-004	 -3.20829E-004	  2.88832E-005	 -1.01318E-004	  1.61918E-004	 -2.61908E-004	
  6.81523E+002	  3.25049E-005	  2.90672E-004	  2.96692E-005	 -1.14188E-004	  1.14932E-005	 -7.07209E-005	  4.81047E-005	
  7.33952E+002	 -8.55915E-005	 -1.96591E-004	 -1.51805E-004	 -1.44891E-004	 -2.59418E-004	  2.36314E-004	  2.84175E-006	
  7.86381E+002	 -1.36765E-004	 -2.40504E-004	 -3.04741E-004	 -1.78689E-004	  2.81610E-005	 -3.34511E-004	  2.09695E-004	
  8.38810E+002	 -9.20724E-005	 -1.48084E-004	 -2.00603E-004	  1.26701E-004	 -1.91166E-004	 -1.22831E-004	 -1.64517E-005	
  9.43667E+002	 -3.90945E-005	  1.49092E-004	 -7.94461E-005	  5.33632E-005	 -1.66202E-004	 -9.13399E-005	 -1.00034E-004	
  1.04852E+003	  1.55830E-005	  9.18240E-005	 -5.49516E-006	  1.59370E-006	  4.70427E-005	 -6.53969E-005	  2.39295E-005	
  1.15338E+003	 -9.25073E-007	  1.82468E-004	  7.11356E-005	 -2.19120E-004	 -9.86183E-005	  6.33531E-005	 -4.76900E-006	
  1.25824E+003	 -9.47087E-005	 -1.97361E-004	 -8.89656E-005	  3.37545E-006	 -4.66553E-005	 -1.65787E-005	 -2.22067E-004	
  1.36310E+003	 -1.81287E-006	 -2.18432E-005	  2.53178E-005	  5.48575E-005	 -1.21119E-004	 -1.35634E-004	  1.87544E-004	
  1.46796E+003	 -6.01713E-005	 -1.57078E-004	  1.77961E-005	  5.59274E-005	 -1.05114E-004	 -1.45500E-004	 -2.70589E-005	
  1.57281E+003	  2.22388E-005	  2.47026E-004	 -8.00415E-006	 -1.86514E-004	  2.52054E-004	 -1.80251E-005	 -1.53103E-004	
  1.67767E+003	 -1.29446E-005	  1.09768E-004	 -4.04583E-005	 -7.39308E-005	  1.51163E-004	 -1.20409E-004	 -1.03801E-004	
  1.88739E+003	 -3.07237E-005	 -1.04696E-005	  7.05632E-005	 -4.55255E-005	  1.47133E-005	 -8.63529E-005	 -1.27271E-004	
  2.09710E+003	 -4.74194E-005	  1.98933E-005	 -5.16716E-005	 -1.25463E-004	  3.28181E-005	 -1.08134E-004	 -5.19587E-005	
  2.30682E+003	 -2.80548E-005	 -1.58675E-004	  7.35910E-005	 -1.05899E-004	 -5.32697E-005	  6.64305E-005	  9.49434E-006	
  2.51653E+003	 -7.32433E-005	 -1.27660E-004	  4.57077E-005	 -1.31353E-004	 -6.34006E-005	 -6.67571E-005	 -9.59969E-005	
  2.72625E+003	 -3.32978E-005	 -1.87802E-005	 -4.59323E-005	 -3.21623E-005	  7.24634E-005	 -2.24286E-004	  4.89104E-005	
  2.93596E+003	 -1.74393E-005	 -4.50779E-005	  1.34142E-004	  6.67981E-005	 -5.65313E-005	 -2.30334E-004	  2.63678E-005	
  3.14568E+003	 -1.04373E-005	  3.08346E-005	  7.35092E-005	 -3.99647E-005	  1.63524E-005	 -2.26876E-004	  8.35201E-005	

"Count Rate"
       0.03906	      18.81168
       0.07813	      19.50555
       0.11719	      19.09437
       0.15625	      19.14577
       0.19531	      17.78372
       0.23438	      18.70888
       0.27344	      17.14124
       0.31250	      18.65748
       0.35156	      19.58265
       0.39063	      18.76028
       0.42969	      19.55695
       0.46875	      19.17146
       0.50781	      19.83964
       0.54688	      17.52673
       0.58594	      18.24630
       0.62500	      18.65748
       0.66406	      17.50103
       0.70313	      18.34910
       0.74219	      18.34910
       0.78125	      18.73458
       0.82031	      18.19490
       0.85938	      18.52899
       0.89844	      19.47985
       0.93750	      20.19942
       0.97656	      17.75802
       1.01563	      18.19490
       1.05469	      20.01953
       1.09375	      17.52673
       1.13281	      18.32340
       1.17188	      18.40049
       1.21094	      18.65748
       1.25000	      19.17146
       1.28906	      18.76028
       1.32813	      18.50329
       1.36719	      17.57813
       1.40625	      17.39823
       1.44531	      18.37479
       1.48438	      16.93565
       1.52344	      18.37479
       1.56250	      18.14350
       1.60156	      18.55469
       1.64063	      16.88425
       1.67969	      18.16920
       1.71875	      18.63178
       1.75781	      19.12007
       1.79688	      18.81168
       1.83594	      16.90995
       1.87500	      18.19490
       1.91406	      18.06641
       1.95313	      17.42393
       1.99219	      19.14577
       2.03125	      19.35136
       2.07031	      17.62952
       2.10938	      17.91221
       2.14844	      19.40276
       2.18750	      17.86082
       2.22656	      20.97040
       2.26563	      17.34683
       2.30469	      19.55695
       2.34375	      17.98931
       2.38281	      17.73232
       2.42188	      18.32340
       2.46094	      20.01953
       2.50000	      18.11781
       2.53906	      19.89104
       2.57813	      18.60609
       2.61719	      17.96361
       2.65625	      17.78372
       2.69531	      18.19490
       2.73438	      18.70888
       2.77344	      19.12007
       2.81250	      19.78824
       2.85156	      17.55243
       2.89063	      18.40049
       2.92969	      18.11781
       2.96875	      18.45189
       3.00781	      18.78598
       3.04688	      18.76028
       3.08594	      18.88877
       3.12500	      18.27200
       3.16406	      18.50329
       3.20313	      18.58039
       3.24219	      21.17599
       3.28125	      18.27200
       3.32031	      18.78598
       3.35938	      18.09211
       3.39844	      17.42393
       3.43750	      18.37479
       3.47656	      17.83512
       3.51563	      17.93791
       3.55469	      17.62952
       3.59375	      19.50555
       3.63281	      18.70888
       3.67188	      18.81168
       3.71094	      18.06641
       3.75000	      18.16920
       3.78906	      17.88651
       3.82813	      19.37706
       3.86719	      18.37479
       3.90625	      17.93791
       3.94531	      18.42619
       3.98438	      18.70888
       4.02344	      17.68092
       4.06250	      17.68092
       4.10156	      18.06641
       4.14063	      17.96361
       4.17969	      17.44963
       4.21875	      19.19716
       4.25781	      17.98931
       4.29688	      17.01275
       4.33594	      17.73232
       4.37500	      18.04071
       4.41406	      18.73458
       4.45313	      17.65522
       4.49219	      17.37253
       4.53125	      19.06867
       4.57031	      18.34910
       4.60938	      19.29996
       4.64844	      17.80942
       4.68750	      18.34910
       4.72656	      17.68092
       4.76563	      17.75802
       4.80469	      17.44963
       4.84375	      18.88877
       4.88281	      16.67866
       4.92188	      17.70662
       4.96094	      19.27426
       5.00000	      18.14350
       5.03906	      17.57813
       5.07813	      18.01501
       5.11719	      18.47759
       5.15625	      18.45189
       5.19531	      17.14124
       5.23438	      17.55243
       5.27344	      18.68318
       5.31250	      18.42619
       5.35156	      20.48211
       5.39063	      19.27426
       5.42969	      19.17146
       5.46875	      18.78598
       5.50781	      18.73458
       5.54688	      17.32113
       5.58594	      18.01501
       5.62500	      20.58491
       5.66406	      18.86308
       5.70313	      19.60835
       5.74219	      17.62952
       5.78125	      17.83512
       5.82031	      16.93565
       5.85938	      20.37932
       5.89844	      17.62952
       5.93750	      18.99157
       5.97656	      18.96587
       6.01563	      18.45189
       6.05469	      18.45189
       6.09375	      18.37479
       6.13281	      19.09437
       6.17188	      19.86534
       6.21094	      17.19264
       6.25000	      17.03845
       6.28906	      17.91221
       6.32813	      19.24856
       6.36719	      18.29770
       6.40625	      19.29996
       6.44531	      17.98931
       6.48438	      17.75802
       6.52344	      19.53125
       6.56250	      18.55469
       6.60156	      17.80942
       6.64063	      17.26974
       6.67969	      19.42846
       6.71875	      19.27426
       6.75781	      20.32792
       6.79688	      19.29996
       6.83594	      19.58265
       6.87500	      19.94243
       6.91406	      18.42619
       6.95313	      17.24404
       6.99219	      17.06415
       7.03125	      19.29996
       7.07031	      17.62952
       7.10938	      18.99157
       7.14844	      19.04297
       7.18750	      17.21834
       7.22656	      16.42167
       7.26563	      18.40049
       7.30469	      19.32566
       7.34375	      17.80942
       7.38281	      19.68544
       7.42188	      20.09663
       7.46094	      17.42393
       7.50000	      17.47533
       7.53906	      18.14350
       7.57813	      18.24630
       7.61719	      17.78372
       7.65625	      19.27426
       7.69531	      18.78598
       7.73438	      19.94243
       7.77344	      17.26974
       7.81250	      18.16920
       7.85156	      19.68544
       7.89063	      18.11781
       7.92969	      17.60382
       7.96875	      16.98705
       8.00781	      18.81168
       8.04688	      17.83512
       8.08594	      17.50103
       8.12500	      19.89104
       8.16406	      17.91221
       8.20313	      20.89330
       8.24219	      18.19490
       8.28125	      17.50103
       8.32031	      19.50555
       8.35938	      17.68092
       8.39844	      19.53125
       8.43750	      19.86534
       8.47656	      17.75802
       8.51563	      16.98705
       8.55469	      15.95909
       8.59375	      19.06867
       8.63281	      16.49877
       8.67188	      18.70888
       8.71094	      18.40049
       8.75000	      18.40049
       8.78906	      18.65748
       8.82813	      18.40049
       8.86719	      18.22060
       8.90625	      16.75576
       8.94531	      17.93791
       8.98438	      17.86082
       9.02344	      19.01727
       9.06250	      18.83738
       9.10156	      19.14577
       9.14063	      16.75576
       9.17969	      17.55243
       9.21875	      19.19716
       9.25781	      19.60835
       9.29688	      17.32113
       9.33594	      18.14350
       9.37500	      18.04071
       9.41406	      19.06867
       9.45313	      18.94017
       9.49219	      18.99157
       9.53125	      20.01953
       9.57031	      19.60835
       9.60938	      19.04297
       9.64844	      19.35136
       9.68750	      18.60609
       9.72656	      19.42846
       9.76563	      18.50329
       9.80469	      18.01501
