ALV-7004/USB
Date :	"04.12.2014"
Time :	"15:58:27"
Samplename : 	""
SampMemo(0) : 	""
SampMemo(1) : 	""
SampMemo(2) : 	""
SampMemo(3) : 	""
SampMemo(4) : 	""
SampMemo(5) : 	""
SampMemo(6) : 	""
SampMemo(7) : 	""
SampMemo(8) : 	""
SampMemo(9) : 	""
Temperature [K] :	     298.16000
Viscosity [cp]  :	       0.89000
Refractive Index:	       1.33200
Wavelength [nm] :	     532.00000
Angle [°]       :	      90.00000
Duration [s]    :	        30
FloatDur [ms]   :	        29989
Stop TP [ms]   :	     98655
Runs            :	        10
Mode            :	"A-CH0+1  C-CH0/1+1/0 "
MeanCR0 [kHz]   :	      85.35768
MeanCR1 [kHz]   :	       8.19226
MeanCR2 [kHz]   :	       0.00000
MeanCR3 [kHz]   :	       0.00000

"Correlation (Multi, Averaged)"
"Lag [ms]"	"Average(0)"	" 1  65.381"	" 2  67.825"	" 3  70.819"	" 4  72.501"	" 5  74.894"	" 6  77.741"	" 7  79.144"	" 8  81.304"	" 9  83.072"	"10  85.358"	"Average(1)"	" 1,   7.002"	" 2,   7.142"	" 3,   7.399"	" 4,   7.418"	" 5,   7.573"	" 6,   7.735"	" 7,   7.741"	" 8,   7.896"	" 9,   8.005"	"10,   8.192"	
  2.50000E-005	 -9.09987E-001	 -8.91209E-001	 -9.07147E-001	 -9.04925E-001	 -9.13471E-001	 -9.07087E-001	 -9.09989E-001	 -9.17012E-001	 -9.17791E-001	 -9.18436E-001	 -9.12800E-001	 -1.00000E+000	 -1.00000E+000	 -1.00000E+000	 -1.00000E+000	 -1.00000E+000	 -1.00000E+000	 -1.00000E+000	 -1.00000E+000	 -1.00000E+000	 -1.00000E+000	 -1.00000E+000	
  5.00000E-005	  1.49854E+000	  1.70431E+000	  1.64806E+000	  1.58094E+000	  1.58672E+000	  1.49883E+000	  1.46364E+000	  1.43432E+000	  1.40229E+000	  1.34409E+000	  1.32214E+000	  1.20363E+000	  1.52933E+000	  1.37028E+000	  1.45351E+000	  9.14931E-001	  1.29529E+000	  1.02071E+000	  1.26421E+000	  1.29725E+000	  7.69315E-001	  1.12148E+000	
  7.50000E-005	  9.85571E-001	  1.11747E+000	  1.12394E+000	  1.06593E+000	  1.00411E+000	  9.72480E-001	  9.25570E-001	  9.22453E-001	  9.06202E-001	  9.10566E-001	  9.06975E-001	  2.54783E+000	  2.87648E+000	  2.13404E+000	  2.77840E+000	  2.17539E+000	  2.86452E+000	  2.65974E+000	  2.63170E+000	  2.62837E+000	  2.76760E+000	  1.96207E+000	
  1.00000E-004	  5.70834E-001	  6.35958E-001	  6.36897E-001	  6.37160E-001	  5.77561E-001	  5.70177E-001	  5.77083E-001	  5.51044E-001	  5.40513E-001	  4.89217E-001	  4.92728E-001	  1.47325E+000	  1.91423E+000	  1.52830E+000	  1.50258E+000	  1.54516E+000	  1.62319E+000	  1.11052E+000	  1.66773E+000	  1.14696E+000	  1.35215E+000	  1.34164E+000	
  1.25000E-004	  3.86934E-001	  4.77029E-001	  4.14109E-001	  4.12462E-001	  3.88010E-001	  4.09256E-001	  3.46833E-001	  3.43895E-001	  3.50379E-001	  3.81754E-001	  3.45612E-001	  1.12509E+000	  5.67086E-001	  1.18593E+000	  1.25723E+000	  1.32700E+000	  1.34214E+000	  1.15543E+000	  1.10728E+000	  1.08255E+000	  1.16481E+000	  1.06144E+000	
  1.50000E-004	  2.66859E-001	  3.11478E-001	  2.93225E-001	  2.66502E-001	  3.07825E-001	  2.56238E-001	  2.43486E-001	  2.53187E-001	  2.59665E-001	  2.33509E-001	  2.43479E-001	  8.74269E-001	  1.14443E+000	  7.64544E-001	  9.13737E-001	  6.48295E-001	  7.56601E-001	  9.53356E-001	  9.27939E-001	  8.67857E-001	  1.16481E+000	  6.01120E-001	
  1.75000E-004	  2.18950E-001	  2.60709E-001	  2.43879E-001	  2.32489E-001	  2.43881E-001	  2.32052E-001	  1.96592E-001	  2.12872E-001	  2.00539E-001	  1.84029E-001	  1.82457E-001	  6.12311E-001	  4.57115E-001	  7.64544E-001	  6.68386E-001	  8.17972E-001	  1.47646E-001	  5.94118E-001	  6.36507E-001	  1.06108E+000	  3.94637E-001	  5.81106E-001	
  2.00000E-004	  1.63771E-001	  1.86290E-001	  1.74093E-001	  1.97406E-001	  1.40097E-001	  1.50873E-001	  1.75700E-001	  1.61406E-001	  1.62877E-001	  1.34163E-001	  1.54804E-001	  3.92902E-001	  6.77057E-001	  3.69497E-001	  1.04079E-001	  2.60461E-001	  2.88174E-001	  5.49213E-001	  3.00238E-001	  4.81404E-001	  4.77899E-001	  4.20994E-001	
  2.25000E-004	  1.45475E-001	  1.91020E-001	  1.38762E-001	  1.48931E-001	  1.61158E-001	  1.81764E-001	  1.34140E-001	  1.22378E-001	  1.19747E-001	  1.29331E-001	  1.27519E-001	  5.05982E-001	  7.32042E-001	  6.32861E-001	  6.92921E-001	  4.30138E-001	  7.56601E-001	  5.71666E-001	  5.69253E-001	  2.23768E-001	  2.69744E-001	  1.80826E-001	
  2.50000E-004	  1.21832E-001	  1.20700E-001	  1.68545E-001	  1.22417E-001	  9.59445E-002	  1.12079E-001	  1.26583E-001	  1.24951E-001	  1.03346E-001	  1.37062E-001	  1.06687E-001	  4.06480E-001	  3.47144E-001	  6.32861E-001	  6.19316E-001	  4.54378E-001	  2.41332E-001	  4.14499E-001	  2.10567E-001	  6.31691E-001	  3.32190E-001	  1.80826E-001	
  2.75000E-004	  1.12091E-001	  1.15024E-001	  1.35842E-001	  1.25899E-001	  9.67058E-002	  1.33392E-001	  1.23916E-001	  9.25711E-002	  1.01118E-001	  9.85996E-002	  9.78381E-002	  3.38045E-001	  2.09680E-001	  6.32861E-001	 -1.85965E-002	  5.75576E-001	 -8.65673E-002	  4.36952E-001	  4.12328E-001	  4.16995E-001	  5.40345E-001	  2.60882E-001	
  3.00000E-004	  7.91143E-002	  1.00204E-001	  7.13123E-002	  9.13504E-002	  8.60483E-002	  5.12548E-002	  9.28013E-002	  7.86325E-002	  8.97792E-002	  7.19271E-002	  5.78329E-002	  2.22368E-001	  4.29622E-001	  5.34589E-002	  4.72105E-001	  1.87742E-001	  2.17910E-001	  1.22618E-001	  3.67492E-001	  7.34809E-002	 -2.16727E-002	  3.20924E-001	
  3.25000E-004	  8.37590E-002	  1.09348E-001	  1.02555E-001	  1.11437E-001	  7.91971E-002	  7.92723E-002	  7.70215E-002	  7.58448E-002	  5.79889E-002	  6.49690E-002	  7.99556E-002	  1.54927E-001	 -3.77543E-002	  1.85141E-001	 -6.76667E-002	  1.15023E-001	  3.11596E-001	  2.34880E-001	  2.10567E-001	  2.23768E-001	  3.53006E-001	  2.07139E-002	
  3.50000E-004	  7.44812E-002	  8.19143E-002	  8.53278E-002	  8.19769E-002	  7.36146E-002	  8.54985E-002	  6.34643E-002	  5.16131E-002	  7.64151E-002	  6.63220E-002	  7.86651E-002	  2.28707E-001	  2.37173E-001	  5.34589E-002	  5.45711E-001	  1.87742E-001	  4.05281E-001	  1.00166E-001	  1.88149E-001	  1.16420E-001	  3.32190E-001	  1.20784E-001	
  3.75000E-004	  6.41334E-002	  1.05249E-001	  5.40849E-002	  5.54631E-002	  3.32684E-002	  1.02740E-001	  4.59066E-002	  7.86325E-002	  5.00919E-002	  5.91707E-002	  5.67268E-002	  2.46221E-001	  4.47239E-002	  2.90487E-001	  4.23035E-001	  2.36221E-001	 -1.09989E-001	  3.24690E-001	  4.57164E-001	  2.45238E-001	  2.69744E-001	  2.80896E-001	
  4.00000E-004	  6.60383E-002	  8.09683E-002	  5.48148E-002	  4.97050E-002	  7.47564E-002	  8.33433E-002	  5.74636E-002	  6.27639E-002	  5.35342E-002	  8.99021E-002	  5.31318E-002	  2.09312E-001	  3.05905E-001	  2.24646E-001	  3.49430E-001	  3.01842E-002	 -3.97246E-002	  3.92047E-001	  5.24417E-001	  2.02299E-001	  1.03220E-001	  6.99925E-004	
  4.50000E-004	  5.10598E-002	  6.69359E-002	  4.76611E-002	  5.30527E-002	  4.07540E-002	  5.14943E-002	  6.27976E-002	  5.37574E-002	  5.24205E-002	  3.37544E-002	  4.79699E-002	  1.89487E-001	  1.54695E-001	  3.03655E-001	  2.26754E-001	  3.45299E-001	 -1.63032E-002	  1.11392E-001	  3.33865E-001	  2.02299E-001	  8.24047E-002	  1.50805E-001	
  5.00000E-004	  5.38855E-002	  7.49769E-002	  5.64208E-002	  6.20246E-002	  4.77321E-002	  5.08956E-002	  3.59054E-002	  7.13415E-002	  5.63690E-002	  5.54983E-002	  2.76907E-002	  8.35343E-002	 -1.02615E-002	  7.85949E-004	 -7.99342E-002	  2.96820E-001	  1.00804E-001	 -1.20958E-002	  6.48502E-002	  1.37890E-001	  1.65667E-001	  1.70819E-001	
  5.50000E-004	  4.94621E-002	  5.66875E-002	  5.51068E-002	  3.14935E-002	  7.27264E-002	  5.32903E-002	  4.12393E-002	  5.93329E-002	  3.46017E-002	  3.24015E-002	  5.77407E-002	  9.89176E-002	  1.13456E-001	  1.71973E-001	  2.88092E-001	  1.75622E-001	  7.73822E-002	  2.34880E-001	  6.48502E-002	 -6.60717E-002	 -2.16727E-002	 -4.93351E-002	
  6.00000E-004	  4.30033E-002	  5.05384E-002	  3.62735E-002	  4.05993E-002	  2.62903E-002	  4.50287E-002	  4.31285E-002	  5.13986E-002	  5.57615E-002	  4.63176E-002	  3.46963E-002	  1.00131E-001	  1.82188E-001	 -1.23823E-002	  2.02219E-001	  5.94460E-003	 -1.09989E-001	  8.89398E-002	  7.60592E-002	  2.13033E-001	  1.34443E-001	  2.20854E-001	
  6.50000E-004	  3.98187E-002	  6.34672E-002	  2.32799E-002	  3.40378E-002	  5.58521E-002	  2.59912E-002	  3.99058E-002	  3.60662E-002	  4.39161E-002	  4.43848E-002	  3.12857E-002	  1.37280E-001	  1.82188E-001	  3.69497E-001	  1.89952E-001	  1.02903E-001	  6.56715E-002	  1.89975E-001	  1.99358E-001	 -1.51950E-001	  1.34443E-001	  9.07629E-002	
  7.00000E-004	  3.20954E-002	  2.89380E-002	  1.33522E-002	  2.80119E-002	  2.89546E-002	  3.10200E-002	  2.86822E-002	  6.15845E-002	  3.22731E-002	  3.09519E-002	  3.71851E-002	  1.31424E-001	  5.84703E-002	  5.34589E-002	  2.88092E-001	  1.51382E-001	  4.22502E-002	  2.23654E-001	 -5.84482E-002	  2.34503E-001	  2.80152E-001	  4.07279E-002	
  7.50000E-004	  3.33234E-002	  3.98171E-002	  4.24053E-002	  2.61372E-002	  3.69477E-002	  3.25765E-002	  3.70166E-002	  3.04907E-002	  3.84490E-002	  2.42837E-002	  2.51098E-002	  9.00408E-002	  8.59630E-002	  7.97954E-002	  5.50087E-002	  6.65437E-002	  3.05395E-002	  1.45071E-001	  1.99358E-001	  1.48625E-001	 -1.12649E-002	  1.00770E-001	
  8.00000E-004	  3.44160E-002	  4.80946E-002	  2.90467E-002	  3.44395E-002	  3.99293E-002	  4.07183E-002	  4.03503E-002	  3.62274E-002	  3.84489E-002	  1.43298E-002	  2.25748E-002	  6.95617E-002	  1.82188E-001	 -1.89664E-002	  6.11425E-002	  6.65436E-002	 -4.59257E-003	  1.22618E-001	  1.32104E-001	  1.44394E-002	  4.34663E-003	  1.35794E-001	
  9.00000E-004	  3.33943E-002	  3.95805E-002	  2.21849E-002	  4.38800E-002	  2.32452E-002	  3.22173E-002	  3.56275E-002	  4.53411E-002	  3.45511E-002	  3.51557E-002	  2.21600E-002	  4.30783E-002	 -5.83739E-002	  1.85141E-001	  1.20723E-002	  2.41243E-002	  1.24225E-001	 -4.57744E-002	  1.44099E-002	  1.98068E-002	  4.34663E-003	  1.50805E-001	
  1.00000E-003	  3.18937E-002	  4.17090E-002	  3.19666E-002	  3.71846E-002	  4.01830E-002	  1.66520E-002	  3.24049E-002	  3.51016E-002	  2.88309E-002	  2.48635E-002	  3.00413E-002	  1.12192E-002	  1.03580E-002	  7.85922E-004	  7.34100E-002	  1.08963E-001	  4.22501E-002	 -7.94530E-002	  2.00144E-002	 -1.09011E-001	 -8.57234E-004	  4.57314E-002	
  1.10000E-003	  2.69414E-002	  2.54693E-002	  3.93393E-002	  2.79449E-002	  3.09846E-002	  2.10821E-002	  2.92934E-002	  3.18850E-002	  2.41737E-002	  2.00316E-002	  1.92104E-002	  4.54792E-003	  1.68441E-001	 -1.30896E-001	  4.27412E-002	 -1.22352E-002	 -8.65673E-002	 -4.01613E-002	  1.32104E-001	 -1.03644E-001	  1.99582E-002	  5.57384E-002	
  1.20000E-003	  2.37276E-002	  1.26194E-002	  3.47405E-002	  1.68306E-002	  2.92084E-002	  1.19226E-002	  3.11825E-002	  3.08664E-002	  2.43762E-002	  2.54434E-002	  2.00860E-002	  3.09134E-002	  7.90898E-002	  4.68747E-002	 -1.24628E-002	  1.20045E-002	  7.11810E-003	 -1.18745E-001	  9.84771E-002	  7.88482E-002	  7.72008E-002	  4.07279E-002	
  1.30000E-003	  2.15937E-002	  3.24855E-002	  2.33529E-002	  1.93079E-002	  1.77896E-002	  1.62928E-002	  2.25703E-002	  1.06554E-002	  3.70315E-002	  2.34623E-002	  1.29884E-002	  4.27926E-002	  4.47239E-002	  9.29636E-002	  4.88749E-002	  6.65436E-002	 -2.80139E-002	 -2.89352E-002	  1.04082E-001	  8.42156E-002	 -3.72843E-002	  8.07559E-002	
  1.40000E-003	  2.15878E-002	  3.31950E-002	  2.45208E-002	  1.77010E-002	  3.06674E-002	  1.50955E-002	  3.21271E-002	  2.58271E-002	  1.38469E-002	  4.42425E-003	  1.84729E-002	  1.11351E-002	 -1.02616E-002	 -5.18870E-002	  5.93854E-003	  1.80644E-002	  7.11810E-003	  6.08743E-002	  1.26499E-001	  1.98068E-002	  9.55050E-003	 -7.43526E-002	
  1.50000E-003	  2.22302E-002	  2.87015E-002	  2.06520E-002	  1.95087E-002	  2.86374E-002	  2.86253E-002	  1.77920E-002	  2.78106E-002	  9.54408E-003	  1.68424E-002	  2.41880E-002	  4.16971E-002	  8.59630E-002	 -8.48076E-002	  1.40882E-001	  5.94457E-003	  1.00804E-001	 -1.77090E-002	  4.80368E-002	  8.95830E-002	 -4.24882E-002	  9.07629E-002	
  1.60000E-003	  1.85311E-002	  1.92414E-002	  1.46296E-002	  2.62041E-002	  1.19216E-002	  1.92262E-002	  2.34315E-002	  1.99035E-002	  1.46315E-002	  2.13361E-002	  1.47858E-002	  4.43496E-002	  3.48474E-003	  2.05382E-002	  1.07146E-001	  3.62440E-002	  1.09586E-001	  6.64873E-002	  4.80367E-002	 -6.87554E-002	  1.99582E-002	  1.00770E-001	
  1.80000E-003	  1.95787E-002	  2.88197E-002	  1.40821E-002	  1.39180E-002	  2.35624E-002	  1.20123E-002	  2.63485E-002	  2.81590E-002	  1.51883E-002	  1.27352E-002	  2.09617E-002	  1.93723E-002	  4.81604E-002	 -3.54268E-002	  3.96742E-002	  4.83639E-002	  3.05394E-002	 -2.05156E-002	  9.00703E-002	  1.02081E-003	 -1.38670E-002	  5.70334E-003	
  2.00000E-003	  1.80625E-002	  2.42867E-002	  1.14542E-002	  2.01782E-002	  2.04857E-002	  1.77295E-002	  1.59584E-002	  2.69260E-002	  7.97476E-003	  1.57069E-002	  1.99247E-002	  1.68973E-002	  4.47238E-002	 -8.48077E-002	 -4.31317E-002	 -2.13251E-002	  3.34671E-002	  1.08586E-001	  3.12233E-002	  1.02081E-003	  1.11026E-001	 -1.18089E-002	
  2.20000E-003	  1.81886E-002	  2.95292E-002	  2.02869E-002	  1.66966E-002	  1.49349E-002	  1.48560E-002	  2.04867E-002	  1.05482E-002	  1.56439E-002	  2.21817E-002	  1.67215E-002	  6.96825E-002	  4.81483E-005	  3.37065E-002	  8.56775E-002	  1.45322E-001	  5.39607E-002	  1.56297E-001	  3.68278E-002	  7.61645E-002	  3.55698E-002	  7.32506E-002	
  2.40000E-003	  1.78304E-002	  2.62970E-002	  1.55786E-002	  2.54006E-002	  2.24205E-002	  2.61108E-002	  1.21246E-002	  7.49239E-003	  6.55735E-003	  1.26869E-002	  2.36348E-002	  2.29185E-002	 -9.61764E-002	  4.07793E-003	 -6.32906E-003	  1.48352E-001	  6.85991E-002	  1.42264E-001	 -2.76237E-002	  3.59089E-002	 -5.80998E-002	  1.82121E-002	
  2.60000E-003	  1.64278E-002	  1.60092E-002	  2.61632E-002	  8.52822E-003	  1.31904E-002	  2.09923E-002	  1.53750E-002	  1.51854E-002	  1.64792E-002	  1.21312E-002	  2.02243E-002	  1.86353E-002	  9.62727E-002	 -2.50619E-003	 -9.39595E-003	  1.50344E-002	 -5.14353E-002	  6.64873E-002	  2.56188E-002	  1.21787E-001	 -8.66309E-003	 -6.68474E-002	
  2.80000E-003	  1.33499E-002	  1.59303E-002	  2.15279E-002	  6.95480E-003	  1.42371E-002	  1.83581E-002	  2.23203E-002	  9.74401E-003	  9.49340E-003	  5.63219E-003	  9.30119E-003	  2.75434E-002	  4.47238E-002	 -8.48077E-002	  9.00537E-003	  6.65436E-002	  3.05394E-002	  1.59695E-002	  1.74137E-001	  9.07192E-003	  9.55045E-003	  6.99844E-004	
  3.00000E-003	  1.62753E-002	  1.06091E-002	  1.31332E-002	  1.22107E-002	  1.82654E-002	  1.95854E-002	  2.70431E-002	  2.25032E-002	  1.43531E-002	  1.46197E-002	  1.04304E-002	  7.24503E-003	  1.37945E-002	 -2.55506E-002	  3.96742E-002	 -1.52652E-002	  8.03098E-002	 -6.54203E-002	  5.92457E-002	 -4.46021E-002	  9.55045E-003	  2.07138E-002	
  3.20000E-003	  1.74193E-002	  1.91043E-002	  1.53595E-002	  1.79854E-002	  1.60295E-002	  1.65770E-002	  2.38620E-002	  2.06272E-002	  1.33405E-002	  1.51394E-002	  1.61683E-002	  3.48832E-002	  4.98786E-002	 -5.79836E-003	  9.33446E-002	 -9.20536E-003	  1.24225E-001	  6.22774E-002	  1.58109E-002	  1.98066E-002	  2.90648E-002	 -3.05721E-002	
  3.60000E-003	  1.54286E-002	  1.51627E-002	  1.96846E-002	  1.02522E-002	  1.35555E-002	  1.94057E-002	  1.79307E-002	  1.75044E-002	  7.96199E-003	  1.76283E-002	  1.52005E-002	  3.80960E-002	  6.53433E-002	  1.47282E-001	 -1.09295E-002	  5.74536E-002	  8.58178E-003	  1.03563E-002	  1.72120E-002	 -1.91071E-002	  2.77639E-002	  7.70031E-002	
  4.00000E-003	  1.46274E-002	  1.31327E-002	  1.70019E-002	  1.96927E-002	  1.37617E-002	  9.73726E-003	  1.10132E-002	  1.81343E-002	  1.21762E-002	  1.77370E-002	  1.38869E-002	  2.25264E-002	  4.30054E-002	 -1.56745E-002	 -7.86261E-003	  1.20043E-002	  1.29733E-002	  7.63101E-002	 -5.42450E-002	  2.65159E-002	  5.89871E-002	  7.32505E-002	
  4.40000E-003	  1.39825E-002	  1.39999E-002	  1.91188E-002	  8.21008E-003	  1.98675E-002	  7.86689E-003	  1.75557E-002	  1.68611E-002	  1.08980E-002	  9.72800E-003	  1.57190E-002	  2.49259E-002	 -1.02617E-002	  6.16888E-002	 -1.55298E-002	  6.04836E-002	  2.76116E-002	 -5.07967E-003	  1.01284E-001	  1.84648E-002	 -4.63912E-002	  5.69891E-002	
  4.80000E-003	  1.29455E-002	  2.09766E-002	  8.88094E-003	  1.94751E-002	  9.68580E-003	  9.54315E-003	  1.16522E-002	  1.60971E-002	  1.17080E-002	  9.70384E-003	  1.17323E-002	  1.22870E-002	  1.72310E-002	  1.39540E-002	  2.74066E-002	 -1.15499E-004	 -2.06949E-002	 -5.07967E-003	  3.40299E-002	 -4.34670E-003	  1.47542E-002	  4.57312E-002	
  5.20000E-003	  1.12021E-002	  6.90481E-003	  1.00306E-002	  2.07305E-002	  7.68752E-003	  9.66288E-003	  2.23757E-002	  9.56967E-003	  5.22843E-003	  1.11055E-002	  8.72497E-003	  3.52728E-002	 -3.77545E-002	  3.86444E-002	  4.40493E-003	  6.95734E-002	  4.81053E-002	  1.28231E-001	  1.47521E-001	  5.04626E-003	 -2.29738E-002	 -2.80704E-002	
  5.60000E-003	  9.90392E-003	  8.69828E-003	  1.87317E-003	  4.32675E-003	  8.59151E-003	  1.10548E-002	  1.80280E-002	  1.36708E-002	  1.13789E-002	  7.27657E-003	  1.41404E-002	  2.29902E-002	  6.53433E-002	 -7.44439E-003	 -9.39605E-003	  2.26091E-002	  4.51776E-002	  8.89396E-002	 -1.36083E-002	  2.36256E-003	  2.64629E-002	  9.45586E-003	
  6.00000E-003	  1.34506E-002	  1.76853E-002	  9.08168E-003	  1.10389E-002	  1.32066E-002	  1.07105E-002	  1.39302E-002	  1.64317E-002	  1.40239E-002	  1.91874E-002	  9.20930E-003	  2.45329E-002	  3.44140E-002	  1.39540E-002	  5.50085E-002	  8.97436E-003	  1.29733E-002	  7.91167E-002	 -2.39932E-003	  6.81132E-002	 -2.42748E-002	 -5.51138E-004	
  6.40000E-003	  1.07793E-002	  1.28576E-002	  3.81652E-003	  1.14153E-002	  9.16316E-003	  1.17131E-002	  1.40481E-002	  1.48639E-002	  7.36739E-003	  1.32874E-002	  9.26093E-003	  3.36999E-002	  3.87095E-002	  3.45291E-002	 -3.26250E-003	  3.09413E-002	  4.95689E-002	  5.17526E-002	  6.27527E-002	  5.33527E-002	  4.43360E-004	  1.82118E-002	
  7.20000E-003	  1.07985E-002	  8.97502E-003	  1.49760E-002	  1.21183E-002	  1.15421E-002	  1.08006E-002	  1.39647E-002	  9.61009E-003	  6.81688E-003	  9.84497E-003	  9.33622E-003	  1.40559E-002	  6.92101E-003	 -2.39049E-002	  2.10455E-003	  2.03365E-002	  4.15178E-002	  2.85987E-002	  2.28207E-002	  1.24262E-002	  1.21521E-002	  1.75863E-002	
  8.00000E-003	  1.11605E-002	  1.18820E-002	  1.18006E-002	  1.00009E-002	  1.19698E-002	  8.61545E-003	  1.98266E-002	  1.06220E-002	  8.81010E-003	  1.05154E-002	  7.56180E-003	  2.56136E-002	 -5.96621E-003	  2.87680E-002	  4.04406E-002	  1.88215E-002	  1.80965E-002	  3.00019E-002	 -2.97847E-004	  1.64518E-002	  2.90646E-002	  8.07555E-002	
  8.80000E-003	  1.15185E-002	  1.57734E-002	  1.04319E-002	  1.15659E-002	  1.75364E-002	  1.07781E-002	  9.75589E-003	  1.21164E-002	  9.50615E-003	  8.03298E-003	  9.68765E-003	  2.33573E-002	 -5.10706E-003	  4.60513E-002	  1.97391E-002	  1.20041E-002	  2.90752E-002	  2.08807E-002	  2.49224E-002	  2.18192E-002	  2.97151E-002	  3.44731E-002	
  9.60000E-003	  1.07232E-002	  1.12306E-002	  1.07878E-002	  9.05516E-003	  1.21760E-002	  1.24394E-002	  1.54580E-002	  1.18148E-002	  1.19364E-002	  4.78910E-003	  7.54452E-003	  2.99118E-002	  6.92101E-003	  6.33346E-002	 -2.54974E-002	  1.20041E-002	  3.34667E-002	  7.54957E-003	  1.01284E-001	  4.19469E-002	  1.80064E-002	  4.01021E-002	
  1.04000E-002	  1.00832E-002	  8.98384E-003	  5.68708E-003	  9.18070E-003	  1.26042E-002	  8.11407E-003	  1.13116E-002	  1.00256E-002	  1.30880E-002	  9.21641E-003	  1.26205E-002	  1.89909E-002	  3.95686E-002	 -4.15254E-003	 -9.62332E-004	  8.24505E-002	  3.05391E-002	 -1.70077E-002	  7.53629E-002	  1.44390E-002	  1.15016E-002	 -4.18302E-002	
  1.12000E-002	  9.57563E-003	  1.14671E-002	  1.36164E-002	  9.57405E-003	  8.17941E-003	  8.52565E-003	  1.11936E-002	  8.73222E-003	  1.12214E-002	  4.83742E-003	  8.40908E-003	  1.78354E-002	  4.34356E-003	  3.94672E-002	  3.96739E-002	  1.12466E-002	  2.98072E-002	 -9.28970E-003	  3.96342E-002	 -1.57526E-002	 -1.50393E-003	  4.07275E-002	
  1.20000E-002	  7.82029E-003	  4.57900E-003	  7.02841E-003	  1.08211E-002	  9.39312E-003	  6.23576E-003	  7.04028E-003	  9.38852E-003	  1.03924E-002	  4.14322E-003	  9.18107E-003	  2.70900E-002	  3.52729E-002	  2.13609E-002	  2.35727E-002	  4.07886E-002	  5.17647E-002	  5.94706E-002	 -2.76198E-002	  3.38958E-002	 -2.02959E-004	  3.25968E-002	
  1.28000E-002	  9.07909E-003	  5.35860E-003	  6.02426E-003	  1.04487E-002	  1.33673E-002	  8.63418E-003	  9.16554E-003	  9.79059E-003	  1.09085E-002	  8.44790E-003	  8.64525E-003	  2.38010E-002	  4.94484E-002	  1.76569E-002	  1.97387E-002	  8.97371E-003	  7.40877E-002	  5.09341E-003	 -1.15073E-002	  1.20903E-002	  3.26461E-002	  2.97819E-002	
  1.44000E-002	  9.01248E-003	  1.11381E-002	  1.14534E-002	  1.05324E-002	  7.01960E-003	  7.55704E-003	  1.00059E-002	  1.00222E-002	  5.41611E-003	  6.80804E-003	  1.01719E-002	  2.23477E-002	  4.08569E-002	  1.51879E-002	  9.38797E-003	  2.48810E-002	 -2.01875E-004	  5.35063E-002	 -1.53604E-002	  4.36238E-002	  3.55733E-002	  1.60223E-002	
  1.60000E-002	  9.29659E-003	  1.25768E-002	  5.79158E-003	  1.12019E-002	  5.51646E-003	  1.16317E-002	  1.32147E-002	  1.08967E-002	  8.82632E-003	  6.62040E-003	  6.68935E-003	  1.29655E-002	  1.03572E-002	  7.36923E-003	  9.38797E-003	 -4.94883E-004	 -2.14275E-002	  2.61425E-002	 -4.85193E-003	  2.91989E-002	  3.19957E-002	  4.19779E-002	
  1.76000E-002	  8.39081E-003	  1.00098E-002	  3.27317E-003	  7.43575E-003	  5.22306E-003	  8.92274E-003	  1.15443E-002	  1.27597E-002	  8.15558E-003	  7.03716E-003	  9.54686E-003	  2.18293E-002	  1.16459E-002	  1.31303E-002	  5.19410E-002	  3.92732E-002	  1.00450E-002	  1.98278E-002	  1.96677E-002	  1.44386E-002	  3.19957E-002	  6.32802E-003	
  1.92000E-002	  8.32897E-003	  9.98024E-003	  6.25238E-003	  7.99231E-003	  1.29505E-002	  9.18840E-003	  8.57519E-003	  7.31155E-003	  6.03265E-003	  8.99110E-003	  6.01530E-003	  1.75770E-002	  1.93782E-002	  2.71264E-002	  4.08235E-002	  3.73795E-002	  3.82367E-003	  3.77195E-002	  9.15931E-003	  5.38107E-003	 -1.35383E-002	  8.51705E-003	
  2.08000E-002	  8.01825E-003	  6.03362E-003	  4.25863E-003	  9.63268E-003	  7.15348E-003	  1.28590E-002	  9.79757E-003	  9.11419E-003	  6.86790E-003	  5.63588E-003	  8.82960E-003	  2.35348E-002	  5.71807E-002	  2.54804E-002	  3.27730E-002	  3.67130E-003	 -2.94785E-002	  3.49129E-002	  1.75660E-002	  3.62436E-002	  2.97190E-002	  2.72802E-002	
  2.24000E-002	  8.24332E-003	  6.53515E-003	  1.03037E-002	  8.18062E-003	  1.07298E-002	  4.14839E-003	  1.05997E-002	  1.13461E-002	  7.01660E-003	  5.46938E-003	  8.10370E-003	  2.71027E-002	  6.06173E-002	  1.43696E-002	  1.20715E-002	  2.90471E-002	  4.04195E-002	  3.03523E-002	  2.66734E-002	  3.65791E-002	 -6.38300E-003	  2.72802E-002	
  2.40000E-002	  7.85219E-003	  8.21581E-003	  8.69323E-003	  8.10529E-003	  8.24381E-003	  7.90127E-003	  1.03879E-002	  1.00896E-002	  6.08643E-003	  3.02318E-003	  7.77532E-003	  2.46081E-002	  2.62484E-003	 -1.03209E-002	  5.42411E-002	  1.65486E-002	  5.90834E-002	 -3.32622E-003	  5.88992E-002	  2.61797E-002	  3.39471E-002	  8.20433E-003	
  2.56000E-002	  8.58112E-003	  6.32008E-003	  8.94151E-003	  9.48308E-003	  9.59134E-003	  7.85641E-003	  1.15673E-002	  1.02961E-002	  5.33898E-003	  8.03109E-003	  8.38528E-003	  1.81188E-002	  1.55112E-002	 -1.21736E-002	  1.72460E-002	  7.27304E-003	  3.01718E-002	  3.16305E-003	  2.92996E-002	  3.32236E-002	  4.20773E-002	  1.53960E-002	
  2.88000E-002	  8.30013E-003	  7.68295E-003	  8.76636E-003	  1.08970E-002	  7.40472E-003	  8.02291E-003	  1.09926E-002	  8.75149E-003	  6.90391E-003	  5.16813E-003	  8.41120E-003	  1.54783E-002	  7.34928E-003	  8.60762E-003	  1.53292E-002	  5.08287E-002	  1.37037E-002	  2.00023E-002	  2.47459E-002	  1.29281E-002	  4.18654E-003	 -2.89803E-003	
  3.20000E-002	  9.36202E-003	  8.34318E-003	  1.00370E-002	  8.12469E-003	  7.87958E-003	  9.80020E-003	  1.05377E-002	  1.33268E-002	  6.74497E-003	  1.05672E-002	  8.25893E-003	  1.54851E-002	 -1.68256E-004	 -6.61819E-003	  2.81717E-002	  2.75359E-002	  4.35292E-002	  1.22843E-002	  5.48049E-003	  1.20895E-002	  1.18340E-002	  2.07122E-002	
  3.52000E-002	  8.58240E-003	  7.08378E-003	  1.07647E-002	  8.76285E-003	  5.72865E-003	  8.59538E-003	  1.18603E-002	  1.10232E-002	  5.58817E-003	  6.10665E-003	  1.03103E-002	  2.10227E-002	  2.06660E-002	  3.28866E-002	  3.06636E-002	  1.14392E-002	  2.01079E-002	  1.24597E-002	  2.80736E-002	  7.39299E-003	  1.37854E-002	  3.27518E-002	
  3.84000E-002	  8.69775E-003	  1.04323E-002	  9.43474E-003	  6.89746E-003	  1.06277E-002	  8.66648E-003	  1.00025E-002	  8.02148E-003	  8.68083E-003	  6.16363E-003	  8.05049E-003	  1.99982E-002	 -4.46399E-003	  2.34267E-002	  2.60633E-002	  1.21967E-002	  3.58441E-002	  2.52646E-002	  3.84069E-002	  8.06391E-003	  1.93146E-002	  1.58651E-002	
  4.16000E-002	  7.91737E-003	  1.01884E-002	  1.00735E-002	  7.43937E-003	  6.93594E-003	  9.28243E-003	  7.99874E-003	  9.27294E-003	  6.84696E-003	  4.43991E-003	  6.69558E-003	  2.42961E-002	  3.26941E-002	  3.76239E-002	  1.30290E-002	  3.41639E-002	  6.20153E-003	  1.63187E-002	  3.61300E-002	  7.72845E-003	  2.25670E-002	  3.65045E-002	
  4.48000E-002	  8.31264E-003	  9.90754E-003	  6.74980E-003	  7.43518E-003	  7.72495E-003	  9.02426E-003	  1.05008E-002	  1.01307E-002	  7.07951E-003	  6.33949E-003	  8.23419E-003	  1.55883E-002	  1.12154E-002	  2.65131E-002	  1.60959E-002	  2.75359E-002	  5.65259E-003	  5.79418E-003	  3.61300E-002	  1.24249E-002	  6.63005E-003	  7.89075E-003	
  4.80000E-002	  8.91554E-003	  1.02662E-002	  7.66227E-003	  8.67174E-003	  6.76149E-003	  1.07735E-002	  1.00324E-002	  1.02748E-002	  6.55197E-003	  9.27150E-003	  8.88952E-003	  3.06660E-002	  3.61307E-002	  4.60598E-002	  2.16546E-002	  2.86721E-002	  2.81590E-002	  2.91236E-002	  3.35029E-002	  1.18694E-003	  4.17564E-002	  4.04134E-002	
  5.12000E-002	  8.26472E-003	  9.63267E-003	  9.53032E-003	  6.28697E-003	  5.33752E-003	  8.93076E-003	  9.61266E-003	  1.03334E-002	  5.50791E-003	  8.49084E-003	  8.98419E-003	  2.22967E-002	  2.57167E-002	  1.84917E-002	  1.89786E-002	  2.31878E-002	  2.12041E-002	  1.70186E-002	  1.58996E-002	  1.69519E-002	  4.58202E-002	  1.96983E-002	
  5.76000E-002	  9.20143E-003	  1.04309E-002	  9.31539E-003	  8.39032E-003	  8.88408E-003	  9.25861E-003	  1.12183E-002	  1.21059E-002	  6.78531E-003	  7.78642E-003	  7.83909E-003	  2.59318E-002	  3.92483E-002	  3.82442E-002	  1.87869E-002	  2.06312E-002	  3.02661E-002	  4.14881E-002	  2.64956E-002	  1.78744E-002	  9.55552E-003	  1.67275E-002	
  6.40000E-002	  8.13078E-003	  7.50980E-003	  7.70488E-003	  8.45889E-003	  6.99681E-003	  8.63049E-003	  9.81234E-003	  1.05483E-002	  7.27017E-003	  6.43120E-003	  7.94495E-003	  1.91312E-002	  1.99174E-002	  1.82859E-002	  3.79551E-002	  6.42819E-003	  1.77320E-002	  2.80693E-002	  2.58895E-003	  8.56538E-003	  1.97194E-002	  3.20507E-002	
  7.04000E-002	  8.39909E-003	  8.10527E-003	  8.23525E-003	  9.85504E-003	  7.83439E-003	  9.51585E-003	  9.48895E-003	  1.05173E-002	  6.84347E-003	  6.00764E-003	  7.58776E-003	  2.49163E-002	  2.30319E-002	  1.98291E-002	  2.27164E-002	  1.44720E-002	  3.72239E-002	  4.58733E-002	  2.17668E-002	  2.70996E-002	  1.56538E-002	  2.14964E-002	
  7.68000E-002	  8.40195E-003	  1.06038E-002	  6.82663E-003	  8.89828E-003	  8.49896E-003	  9.34744E-003	  1.01653E-002	  9.83460E-003	  6.07028E-003	  6.90156E-003	  6.87266E-003	  2.11030E-002	  1.29369E-002	  2.25039E-002	  1.68701E-002	  2.17629E-002	  2.30429E-002	  1.28088E-002	  3.06114E-002	  2.56739E-002	  3.00459E-002	  1.47730E-002	
  8.32000E-002	  8.20794E-003	  7.89937E-003	  4.63100E-003	  9.83250E-003	  8.91038E-003	  8.42886E-003	  1.03536E-002	  9.67041E-003	  6.85729E-003	  7.78793E-003	  7.70802E-003	  2.10013E-002	  2.53945E-002	 -1.46666E-003	  1.46658E-002	  3.05687E-002	  1.30705E-002	  1.05285E-002	  3.06989E-002	  3.86731E-002	  2.63056E-002	  2.15746E-002	
  8.96000E-002	  8.09826E-003	  8.62858E-003	  8.64800E-003	  7.87191E-003	  4.90290E-003	  9.42789E-003	  9.65477E-003	  9.37683E-003	  7.10998E-003	  7.43988E-003	  7.92190E-003	  1.56282E-002	 -2.42044E-003	  1.06729E-002	  2.51124E-002	  2.27098E-002	  2.75259E-002	 -7.62630E-003	  2.43063E-002	  2.32418E-002	  2.14269E-002	  1.13331E-002	
  9.60000E-002	  8.77266E-003	  7.18617E-003	  8.53444E-003	  1.07964E-002	  8.50550E-003	  8.93118E-003	  1.04847E-002	  9.76928E-003	  7.35481E-003	  8.13518E-003	  8.02888E-003	  1.68238E-002	  1.84139E-002	  5.01465E-003	  2.26205E-002	  1.44720E-002	  2.92642E-002	  1.78079E-002	  3.13119E-002	  6.72034E-003	  2.18335E-002	  7.78792E-004	
  1.02400E-001	  8.31383E-003	  8.36575E-003	  7.02569E-003	  9.31862E-003	  8.55015E-003	  7.94345E-003	  9.90005E-003	  9.77520E-003	  6.10828E-003	  7.39529E-003	  8.75579E-003	  1.92364E-002	  1.81468E-002	  3.47275E-003	  3.42372E-002	  2.46565E-002	  1.67266E-002	  2.82940E-002	  2.23369E-002	  1.36820E-002	  1.90824E-002	  1.17288E-002	
  1.15200E-001	  7.81610E-003	  8.44871E-003	  6.52554E-003	  9.32808E-003	  7.48509E-003	  7.33822E-003	  9.40259E-003	  8.47265E-003	  6.10233E-003	  7.27376E-003	  7.78399E-003	  2.13508E-002	  2.33554E-002	  3.21757E-002	  1.96645E-002	  1.68449E-002	  2.19873E-002	  3.37755E-002	  1.87028E-002	  1.19670E-002	  1.91230E-002	  1.59114E-002	
  1.28000E-001	  7.37069E-003	  8.63665E-003	  5.66275E-003	  6.75023E-003	  6.41801E-003	  7.99021E-003	  9.20379E-003	  1.01673E-002	  5.88205E-003	  6.81467E-003	  6.18124E-003	  1.96657E-002	  2.87202E-002	  1.12400E-002	  1.13741E-002	  6.76068E-003	  2.51894E-002	  2.89956E-002	  2.65403E-002	  1.39798E-002	  1.79034E-002	  2.59533E-002	
  1.40800E-001	  7.88962E-003	  8.22391E-003	  6.88760E-003	  7.95555E-003	  7.54010E-003	  7.20916E-003	  9.89224E-003	  9.79494E-003	  6.39815E-003	  6.96076E-003	  8.03377E-003	  1.81167E-002	  1.10588E-002	  1.55047E-002	  7.72757E-003	  2.01070E-002	  3.43841E-002	  2.39087E-002	  1.77833E-002	  1.40637E-002	  1.39597E-002	  2.26698E-002	
  1.53600E-001	  7.81688E-003	  7.80932E-003	  6.98740E-003	  7.16936E-003	  7.80370E-003	  7.94298E-003	  9.75029E-003	  9.44018E-003	  6.53062E-003	  7.17219E-003	  7.56280E-003	  2.25006E-002	  2.77049E-002	  1.51446E-002	  2.11933E-002	  2.29949E-002	  2.70649E-002	  1.04461E-002	  2.75473E-002	  1.45249E-002	  3.27835E-002	  2.56015E-002	
  1.66400E-001	  7.49199E-003	  8.75513E-003	  7.09911E-003	  7.65539E-003	  6.37919E-003	  6.54921E-003	  8.34517E-003	  1.06736E-002	  6.22371E-003	  5.91060E-003	  7.32879E-003	  2.19249E-002	  9.87751E-003	  2.49694E-002	  2.85252E-002	  1.87340E-002	  1.68638E-002	  2.03567E-002	  2.32564E-002	  1.94730E-002	  3.52228E-002	  2.19704E-002	
  1.79200E-001	  7.56449E-003	  8.32434E-003	  7.71695E-003	  7.08894E-003	  6.96546E-003	  7.73764E-003	  9.63526E-003	  9.62487E-003	  6.68563E-003	  4.99934E-003	  6.86646E-003	  1.90550E-002	  3.07656E-002	  1.74079E-002	  1.08949E-002	  1.05436E-002	  3.14107E-002	  1.38666E-002	  2.40445E-002	  2.04375E-002	  1.03414E-002	  2.08368E-002	
  1.92000E-001	  7.44401E-003	  7.99052E-003	  7.25658E-003	  9.22516E-003	  5.32902E-003	  5.82052E-003	  9.70515E-003	  9.41714E-003	  6.27906E-003	  6.26244E-003	  7.15452E-003	  1.64735E-002	  7.30006E-003	  5.88565E-003	  2.52233E-002	  1.32422E-002	  6.98293E-003	  1.74625E-002	  2.02790E-002	  3.11304E-002	  6.07248E-003	  3.11565E-002	
  2.04800E-001	  7.20398E-003	  8.11602E-003	  6.72568E-003	  7.89221E-003	  5.80399E-003	  6.65108E-003	  8.83748E-003	  7.77392E-003	  6.09522E-003	  6.93532E-003	  7.20888E-003	  1.71350E-002	  1.65924E-002	  7.75421E-003	  1.83628E-002	  1.86079E-002	  2.01824E-002	  2.29986E-002	  1.92563E-002	  1.67114E-002	  1.07214E-002	  2.01624E-002	
  2.30400E-001	  7.32624E-003	  7.34030E-003	  6.95744E-003	  7.13819E-003	  6.27241E-003	  8.21864E-003	  8.98528E-003	  9.59396E-003	  5.66549E-003	  5.71267E-003	  7.37804E-003	  1.95827E-002	  1.39344E-002	  1.99454E-002	  2.88290E-002	  1.89630E-002	  2.64952E-002	  1.53682E-002	  2.22775E-002	  1.53486E-002	  1.86901E-002	  1.59755E-002	
  2.56000E-001	  7.45486E-003	  7.78292E-003	  7.67416E-003	  7.04503E-003	  6.55240E-003	  7.46844E-003	  9.32105E-003	  9.63518E-003	  5.80725E-003	  6.39223E-003	  6.86990E-003	  2.29850E-002	  3.12517E-002	  1.50844E-002	  2.73914E-002	  1.53412E-002	  2.14632E-002	  3.20761E-002	  2.23432E-002	  2.15800E-002	  1.92711E-002	  2.40477E-002	
  2.81600E-001	  7.05111E-003	  7.11488E-003	  6.72960E-003	  7.05440E-003	  6.37512E-003	  6.93125E-003	  8.54512E-003	  8.76793E-003	  6.04517E-003	  6.13591E-003	  6.81168E-003	  1.86592E-002	  2.46469E-002	  1.59588E-002	  1.57704E-002	  1.36368E-002	  1.18796E-002	  2.31257E-002	  2.68093E-002	  2.06994E-002	  1.34573E-002	  2.06077E-002	
  3.07200E-001	  7.20808E-003	  8.74310E-003	  6.76667E-003	  6.73567E-003	  5.84545E-003	  7.05749E-003	  8.48631E-003	  9.22047E-003	  5.98326E-003	  6.47512E-003	  6.76721E-003	  1.92177E-002	  1.98948E-002	  1.76049E-002	  1.53299E-002	  1.15773E-002	  1.43315E-002	  2.55376E-002	  3.92836E-002	  4.40403E-003	  1.71121E-002	  2.71009E-002	
  3.32800E-001	  7.02837E-003	  6.77798E-003	  6.02093E-003	  7.00105E-003	  6.04023E-003	  6.17650E-003	  9.22556E-003	  8.83118E-003	  6.49144E-003	  6.27329E-003	  7.44555E-003	  1.89486E-002	  1.60017E-002	  1.34897E-002	  1.19993E-002	  2.29162E-002	  2.21539E-002	  2.36300E-002	  1.65591E-002	  1.75081E-002	  2.22551E-002	  2.29727E-002	
  3.58400E-001	  6.86231E-003	  7.05504E-003	  5.94116E-003	  7.05554E-003	  5.42868E-003	  6.74920E-003	  8.29444E-003	  9.46382E-003	  5.96187E-003	  6.11773E-003	  6.55563E-003	  1.83298E-002	  1.18939E-002	  2.12523E-002	  2.12914E-002	  1.41858E-002	  2.66827E-002	  1.38991E-002	  1.89673E-002	  1.71517E-002	  1.85147E-002	  1.94588E-002	
  3.84000E-001	  7.15911E-003	  7.38260E-003	  7.55133E-003	  6.59453E-003	  6.49325E-003	  7.33757E-003	  8.76825E-003	  8.81922E-003	  5.88791E-003	  5.77612E-003	  6.98034E-003	  1.77160E-002	  2.51571E-002	  1.51310E-002	  1.12520E-002	  8.57552E-003	  2.48758E-002	  1.82625E-002	  2.39369E-002	  1.94161E-002	  1.81895E-002	  1.23638E-002	
  4.09600E-001	  7.15762E-003	  7.08719E-003	  6.95461E-003	  7.27662E-003	  6.51444E-003	  6.99229E-003	  9.26767E-003	  8.97721E-003	  6.02584E-003	  5.83486E-003	  6.64552E-003	  1.71138E-002	  1.99137E-002	  9.73163E-003	  1.78760E-002	  2.30647E-002	  1.86242E-002	  2.23646E-002	  1.72393E-002	  1.07397E-002	  1.36966E-002	  1.78879E-002	
  4.60800E-001	  6.90522E-003	  7.08919E-003	  5.62522E-003	  7.39318E-003	  6.17565E-003	  6.79900E-003	  8.32960E-003	  8.49562E-003	  6.06618E-003	  6.07079E-003	  7.00778E-003	  1.63134E-002	  1.50590E-002	  9.95836E-003	  1.58753E-002	  1.58282E-002	  1.87316E-002	  1.70692E-002	  2.41530E-002	  1.11843E-002	  1.44691E-002	  2.08059E-002	
  5.12000E-001	  6.84165E-003	  6.75784E-003	  6.67031E-003	  7.25326E-003	  6.02623E-003	  6.50041E-003	  9.26594E-003	  8.20937E-003	  5.69343E-003	  5.27070E-003	  6.76903E-003	  1.89412E-002	  1.76902E-002	  2.24840E-002	  2.09191E-002	  2.25675E-002	  2.11333E-002	  1.94417E-002	  1.92008E-002	  9.84664E-003	  1.57193E-002	  2.04094E-002	
  5.63200E-001	  6.66297E-003	  6.69471E-003	  6.18149E-003	  6.63758E-003	  6.54774E-003	  6.97901E-003	  8.48880E-003	  8.35617E-003	  5.24156E-003	  5.71428E-003	  5.78838E-003	  1.81022E-002	  1.85408E-002	  1.79154E-002	  1.45335E-002	  1.72485E-002	  2.25514E-002	  2.25379E-002	  1.87082E-002	  1.34320E-002	  1.43573E-002	  2.11968E-002	
  6.14400E-001	  6.64318E-003	  7.14366E-003	  5.97647E-003	  7.18282E-003	  6.46654E-003	  6.40905E-003	  7.98938E-003	  8.14245E-003	  5.35393E-003	  5.39600E-003	  6.37152E-003	  1.90313E-002	  1.80929E-002	  1.48676E-002	  1.76364E-002	  1.77311E-002	  2.53533E-002	  1.80998E-002	  2.27738E-002	  1.41406E-002	  2.04558E-002	  2.11619E-002	
  6.65600E-001	  6.46881E-003	  6.31616E-003	  5.87716E-003	  6.68741E-003	  4.82212E-003	  6.87871E-003	  8.16009E-003	  8.87747E-003	  5.24477E-003	  5.57663E-003	  6.24758E-003	  1.70032E-002	  2.14088E-002	  1.10786E-002	  1.38580E-002	  1.05228E-002	  2.56369E-002	  2.02223E-002	  2.38465E-002	  1.51785E-002	  1.10210E-002	  1.72583E-002	
  7.16800E-001	  6.67442E-003	  7.18112E-003	  6.20031E-003	  6.65447E-003	  5.93231E-003	  7.16158E-003	  8.28956E-003	  7.97734E-003	  5.61877E-003	  4.91800E-003	  6.81076E-003	  1.82544E-002	  1.94806E-002	  2.27427E-002	  1.69876E-002	  1.51271E-002	  2.33884E-002	  1.60956E-002	  2.18936E-002	  1.85394E-002	  9.92744E-003	  1.83612E-002	
  7.68000E-001	  6.27540E-003	  6.47571E-003	  5.46219E-003	  6.63825E-003	  5.34049E-003	  6.21316E-003	  7.28876E-003	  8.33077E-003	  5.45798E-003	  5.42293E-003	  6.12371E-003	  1.68731E-002	  1.78781E-002	  1.15496E-002	  1.08685E-002	  1.19031E-002	  1.64350E-002	  2.02465E-002	  1.96058E-002	  1.77322E-002	  2.02686E-002	  2.22439E-002	
  8.19200E-001	  6.32450E-003	  6.57396E-003	  6.07922E-003	  6.83932E-003	  5.44153E-003	  6.39308E-003	  7.46623E-003	  8.00935E-003	  5.37158E-003	  5.19622E-003	  5.87453E-003	  1.71246E-002	  1.28483E-002	  1.49871E-002	  1.86264E-002	  1.83777E-002	  1.46925E-002	  2.20689E-002	  2.10967E-002	  1.50660E-002	  1.46166E-002	  1.88656E-002	
  9.21600E-001	  6.18960E-003	  6.44130E-003	  6.10082E-003	  6.22759E-003	  5.34199E-003	  5.83385E-003	  7.60065E-003	  7.94229E-003	  5.58743E-003	  5.25087E-003	  5.56919E-003	  1.63246E-002	  2.34134E-002	  9.51203E-003	  1.25956E-002	  1.88498E-002	  1.50426E-002	  1.67656E-002	  1.90059E-002	  1.34996E-002	  1.71315E-002	  1.74303E-002	
  1.02400E+000	  6.03606E-003	  6.29368E-003	  5.56059E-003	  6.37126E-003	  5.43664E-003	  5.61017E-003	  7.60461E-003	  8.10527E-003	  4.85708E-003	  4.82391E-003	  5.69740E-003	  1.60713E-002	  1.78874E-002	  1.09588E-002	  1.65658E-002	  1.97198E-002	  1.35100E-002	  1.31813E-002	  2.06698E-002	  1.66195E-002	  1.44345E-002	  1.71664E-002	
  1.12640E+000	  5.87010E-003	  5.92365E-003	  5.37965E-003	  6.18941E-003	  5.10383E-003	  5.82208E-003	  7.56374E-003	  7.81942E-003	  4.93471E-003	  4.41127E-003	  5.55325E-003	  1.55306E-002	  1.57377E-002	  1.28299E-002	  1.32457E-002	  1.48432E-002	  1.54829E-002	  1.73191E-002	  1.59364E-002	  1.48959E-002	  1.70171E-002	  1.79986E-002	
  1.22880E+000	  5.76970E-003	  5.98397E-003	  5.25532E-003	  5.67790E-003	  4.78308E-003	  5.65881E-003	  7.65263E-003	  7.53223E-003	  4.58598E-003	  4.67148E-003	  5.89556E-003	  1.41367E-002	  1.12184E-002	  1.62555E-002	  1.35245E-002	  8.47376E-003	  1.49225E-002	  2.05350E-002	  1.42671E-002	  7.84033E-003	  1.34739E-002	  2.08559E-002	
  1.33120E+000	  5.48238E-003	  5.57923E-003	  5.29267E-003	  5.52263E-003	  4.24323E-003	  5.47952E-003	  7.00033E-003	  7.51892E-003	  4.28968E-003	  4.39227E-003	  5.50531E-003	  1.62149E-002	  1.63381E-002	  1.19297E-002	  1.21633E-002	  1.25528E-002	  2.05393E-002	  1.98322E-002	  2.28995E-002	  1.47053E-002	  1.27370E-002	  1.84516E-002	
  1.43360E+000	  5.66068E-003	  5.84170E-003	  5.63381E-003	  5.69855E-003	  4.86873E-003	  5.12327E-003	  7.18650E-003	  7.51031E-003	  4.62396E-003	  4.51546E-003	  5.60456E-003	  1.38969E-002	  1.69538E-002	  1.14363E-002	  1.45581E-002	  8.43510E-003	  1.62974E-002	  1.51187E-002	  1.76102E-002	  1.16659E-002	  9.62911E-003	  1.72649E-002	
  1.53600E+000	  5.50652E-003	  5.60595E-003	  5.99724E-003	  5.31730E-003	  4.61662E-003	  5.37782E-003	  7.41126E-003	  7.27035E-003	  4.52090E-003	  3.98537E-003	  4.96241E-003	  1.32871E-002	  1.07546E-002	  1.50933E-002	  1.47719E-002	  1.51864E-002	  1.41403E-002	  1.51142E-002	  1.42550E-002	  1.03974E-002	  9.84098E-003	  1.33164E-002	
  1.63840E+000	  5.40462E-003	  5.68149E-003	  5.23665E-003	  5.38559E-003	  4.34586E-003	  5.05878E-003	  7.19901E-003	  7.42626E-003	  4.25075E-003	  4.23270E-003	  5.22907E-003	  1.47047E-002	  1.56153E-002	  1.42731E-002	  1.34570E-002	  1.19550E-002	  1.47684E-002	  1.66222E-002	  1.90650E-002	  1.14746E-002	  1.31250E-002	  1.66909E-002	
  1.84320E+000	  5.23697E-003	  5.39369E-003	  4.89872E-003	  5.40410E-003	  4.41710E-003	  5.21096E-003	  6.66803E-003	  7.07317E-003	  3.92678E-003	  4.17241E-003	  5.20475E-003	  1.38276E-002	  1.10636E-002	  1.29518E-002	  1.38643E-002	  1.34645E-002	  1.40008E-002	  1.69823E-002	  1.76029E-002	  1.08875E-002	  1.06565E-002	  1.68016E-002	
  2.04800E+000	  5.11447E-003	  5.40973E-003	  4.62770E-003	  5.45637E-003	  4.13574E-003	  4.82695E-003	  6.81704E-003	  6.79843E-003	  4.23604E-003	  3.91814E-003	  4.91853E-003	  1.27730E-002	  1.24214E-002	  1.29743E-002	  1.12897E-002	  1.10720E-002	  1.22018E-002	  1.79736E-002	  1.78913E-002	  7.97516E-003	  8.33797E-003	  1.55928E-002	
  2.25280E+000	  5.03792E-003	  5.38893E-003	  4.85816E-003	  5.08383E-003	  3.99553E-003	  4.88131E-003	  6.44999E-003	  6.72826E-003	  4.15063E-003	  3.93171E-003	  4.91080E-003	  1.40968E-002	  1.40792E-002	  1.28166E-002	  1.21032E-002	  1.48515E-002	  1.73406E-002	  1.55799E-002	  1.47220E-002	  9.82637E-003	  1.13359E-002	  1.83124E-002	
  2.45760E+000	  4.79613E-003	  5.18738E-003	  4.05211E-003	  5.00257E-003	  3.83132E-003	  4.80764E-003	  6.59279E-003	  6.26089E-003	  3.88983E-003	  3.81038E-003	  4.52638E-003	  1.49471E-002	  1.69374E-002	  1.29645E-002	  1.67239E-002	  1.52863E-002	  1.48586E-002	  1.66730E-002	  1.65037E-002	  1.07385E-002	  1.24016E-002	  1.63830E-002	
  2.66240E+000	  4.80703E-003	  5.20464E-003	  4.23010E-003	  4.67724E-003	  4.32542E-003	  4.46457E-003	  6.51731E-003	  6.31595E-003	  3.67773E-003	  3.82598E-003	  4.83132E-003	  1.31559E-002	  1.19060E-002	  1.11625E-002	  1.65335E-002	  1.17203E-002	  1.50931E-002	  1.75584E-002	  1.35041E-002	  1.04390E-002	  9.89502E-003	  1.37472E-002	
  2.86720E+000	  4.60006E-003	  4.37183E-003	  4.12693E-003	  4.59061E-003	  3.97661E-003	  4.47336E-003	  6.52795E-003	  6.29576E-003	  3.58306E-003	  3.58945E-003	  4.46505E-003	  1.26014E-002	  1.32740E-002	  9.51315E-003	  1.41162E-002	  1.29443E-002	  1.48141E-002	  1.44438E-002	  1.58759E-002	  7.68780E-003	  1.01796E-002	  1.31654E-002	
  3.07200E+000	  4.44859E-003	  4.62678E-003	  3.63446E-003	  4.23334E-003	  3.73716E-003	  4.38335E-003	  5.97777E-003	  6.32091E-003	  3.90091E-003	  3.60050E-003	  4.07067E-003	  1.11040E-002	  9.55350E-003	  1.19808E-002	  1.24912E-002	  1.11615E-002	  9.92579E-003	  1.48013E-002	  1.40148E-002	  7.89487E-003	  6.68699E-003	  1.25291E-002	
  3.27680E+000	  4.39907E-003	  4.72983E-003	  3.73266E-003	  4.50192E-003	  3.74745E-003	  4.14293E-003	  6.05297E-003	  5.99384E-003	  3.59966E-003	  3.32571E-003	  4.16375E-003	  1.23475E-002	  1.15803E-002	  1.03238E-002	  1.45735E-002	  1.01436E-002	  1.15085E-002	  1.52020E-002	  1.61363E-002	  1.09703E-002	  9.34666E-003	  1.36897E-002	
  3.68640E+000	  4.14870E-003	  4.35020E-003	  3.99250E-003	  4.15087E-003	  3.61353E-003	  3.59608E-003	  5.67327E-003	  5.55431E-003	  3.42228E-003	  3.18122E-003	  3.95273E-003	  1.05723E-002	  1.04187E-002	  9.40249E-003	  1.18632E-002	  8.10100E-003	  1.14873E-002	  1.44378E-002	  1.22889E-002	  7.36086E-003	  7.56937E-003	  1.27939E-002	
  4.09600E+000	  4.02041E-003	  3.91640E-003	  3.39944E-003	  4.06016E-003	  3.58555E-003	  3.64020E-003	  5.57079E-003	  5.56961E-003	  3.15212E-003	  3.23929E-003	  4.07052E-003	  1.06824E-002	  1.19559E-002	  8.90906E-003	  9.37140E-003	  7.41166E-003	  1.38274E-002	  1.31801E-002	  1.51316E-002	  7.05999E-003	  7.91979E-003	  1.20572E-002	
  4.50560E+000	  3.80641E-003	  4.06023E-003	  3.35916E-003	  3.82729E-003	  3.21561E-003	  3.30385E-003	  5.14423E-003	  5.30718E-003	  3.20618E-003	  2.89469E-003	  3.74565E-003	  1.03090E-002	  9.65322E-003	  9.02505E-003	  1.00857E-002	  1.05912E-002	  9.69887E-003	  1.42322E-002	  1.22968E-002	  8.17879E-003	  7.64447E-003	  1.16837E-002	
  4.91520E+000	  3.72850E-003	  3.76088E-003	  3.00299E-003	  3.90607E-003	  3.25193E-003	  3.20133E-003	  5.24233E-003	  5.37079E-003	  3.24790E-003	  2.72882E-003	  3.57193E-003	  1.08780E-002	  9.98726E-003	  9.35785E-003	  1.13067E-002	  8.49573E-003	  1.00256E-002	  1.39278E-002	  1.29585E-002	  1.07349E-002	  8.74507E-003	  1.32402E-002	
  5.32480E+000	  3.50647E-003	  3.80970E-003	  2.96011E-003	  3.52408E-003	  2.83048E-003	  3.02575E-003	  4.97178E-003	  5.30155E-003	  2.77986E-003	  2.61499E-003	  3.24642E-003	  9.83644E-003	  9.33111E-003	  9.25488E-003	  1.05964E-002	  9.27002E-003	  1.06011E-002	  1.01865E-002	  1.39941E-002	  1.00526E-002	  5.24899E-003	  9.82870E-003	
  5.73440E+000	  3.46568E-003	  3.35845E-003	  3.03992E-003	  3.50915E-003	  2.97881E-003	  3.14288E-003	  4.67469E-003	  5.10801E-003	  2.91375E-003	  2.73234E-003	  3.19879E-003	  9.92772E-003	  8.09883E-003	  9.39154E-003	  1.17185E-002	  9.19907E-003	  9.95257E-003	  1.02825E-002	  1.26327E-002	  8.81911E-003	  8.31977E-003	  1.08626E-002	
  6.14400E+000	  3.28452E-003	  3.60007E-003	  3.01653E-003	  3.23808E-003	  2.63540E-003	  2.61342E-003	  4.64496E-003	  5.07441E-003	  2.60775E-003	  2.37233E-003	  3.04229E-003	  9.17685E-003	  9.84609E-003	  7.66948E-003	  9.86834E-003	  5.20586E-003	  9.15789E-003	  1.06589E-002	  1.17736E-002	  9.18973E-003	  7.85585E-003	  1.05427E-002	
  6.55360E+000	  3.23235E-003	  3.55721E-003	  2.88626E-003	  3.18761E-003	  2.59320E-003	  2.66049E-003	  4.59256E-003	  4.83688E-003	  2.65446E-003	  2.28458E-003	  3.07022E-003	  8.72840E-003	  9.77902E-003	  7.97109E-003	  9.52260E-003	  5.79569E-003	  9.25899E-003	  9.36377E-003	  1.18786E-002	  7.25335E-003	  6.68154E-003	  9.77931E-003	
  7.37280E+000	  2.99006E-003	  3.02750E-003	  2.56822E-003	  2.86103E-003	  2.34215E-003	  2.70776E-003	  4.32524E-003	  4.71559E-003	  2.39994E-003	  2.16863E-003	  2.78457E-003	  8.39645E-003	  8.18181E-003	  7.88319E-003	  8.27857E-003	  8.32665E-003	  6.71313E-003	  9.17354E-003	  1.12828E-002	  8.55840E-003	  6.29282E-003	  9.27358E-003	
  8.19200E+000	  2.91322E-003	  2.86420E-003	  2.73063E-003	  2.88521E-003	  2.26097E-003	  2.67276E-003	  4.23211E-003	  4.48871E-003	  2.28743E-003	  1.93649E-003	  2.77369E-003	  8.70614E-003	  7.73614E-003	  9.44593E-003	  7.26618E-003	  7.29868E-003	  9.44528E-003	  1.05928E-002	  1.21499E-002	  8.09747E-003	  5.62397E-003	  9.40507E-003	
  9.01120E+000	  2.77026E-003	  2.89886E-003	  2.52757E-003	  2.75006E-003	  2.10431E-003	  2.39815E-003	  3.90377E-003	  4.26101E-003	  2.18836E-003	  2.17725E-003	  2.49323E-003	  8.03697E-003	  7.09716E-003	  7.68910E-003	  7.39184E-003	  6.68870E-003	  9.05905E-003	  9.55222E-003	  9.94592E-003	  6.97177E-003	  7.41588E-003	  8.55810E-003	
  9.83040E+000	  2.58924E-003	  2.55673E-003	  2.60404E-003	  2.40592E-003	  1.98424E-003	  2.08010E-003	  3.99321E-003	  3.81068E-003	  2.13061E-003	  1.88645E-003	  2.44035E-003	  6.97036E-003	  6.96571E-003	  5.01032E-003	  7.80192E-003	  5.84833E-003	  6.24955E-003	  9.06262E-003	  8.51254E-003	  4.49679E-003	  6.46627E-003	  9.28953E-003	
  1.06496E+001	  2.47874E-003	  2.61778E-003	  2.31770E-003	  2.34074E-003	  1.95548E-003	  2.26551E-003	  3.45558E-003	  3.89283E-003	  1.95817E-003	  1.83593E-003	  2.14766E-003	  7.45045E-003	  7.36996E-003	  7.66730E-003	  6.82074E-003	  5.25520E-003	  7.76889E-003	  9.56348E-003	  9.67260E-003	  5.84673E-003	  6.23905E-003	  8.30057E-003	
  1.14688E+001	  2.40971E-003	  2.48664E-003	  2.14095E-003	  2.47932E-003	  1.82817E-003	  2.15599E-003	  3.41551E-003	  3.57316E-003	  1.98390E-003	  1.64822E-003	  2.38519E-003	  6.92079E-003	  6.57287E-003	  6.08775E-003	  7.22762E-003	  4.77818E-003	  7.08146E-003	  8.81188E-003	  8.24541E-003	  5.98899E-003	  5.71113E-003	  8.70265E-003	
  1.22880E+001	  2.34712E-003	  2.57391E-003	  2.09157E-003	  2.38076E-003	  1.74202E-003	  1.71657E-003	  3.54983E-003	  3.31810E-003	  1.86060E-003	  1.83505E-003	  2.40283E-003	  6.81152E-003	  7.43032E-003	  5.70471E-003	  7.60270E-003	  4.62649E-003	  7.21341E-003	  8.91472E-003	  8.40588E-003	  5.33829E-003	  6.35031E-003	  6.52832E-003	
  1.31072E+001	  2.25409E-003	  2.48228E-003	  1.89158E-003	  2.14801E-003	  1.77665E-003	  1.82189E-003	  3.39947E-003	  3.39043E-003	  1.83296E-003	  1.66614E-003	  2.13151E-003	  6.41459E-003	  6.92180E-003	  6.56304E-003	  6.91756E-003	  4.82988E-003	  5.87521E-003	  7.99904E-003	  7.40231E-003	  4.83436E-003	  4.84794E-003	  7.95477E-003	
  1.47456E+001	  2.08091E-003	  2.30914E-003	  1.62084E-003	  1.94765E-003	  1.49207E-003	  1.59347E-003	  3.29707E-003	  3.19475E-003	  1.76283E-003	  1.60869E-003	  1.98254E-003	  5.63480E-003	  5.97611E-003	  6.25211E-003	  5.88229E-003	  3.73193E-003	  5.25830E-003	  7.81541E-003	  6.20468E-003	  5.61598E-003	  3.54619E-003	  6.06503E-003	
  1.63840E+001	  2.02588E-003	  2.19035E-003	  1.73435E-003	  1.91891E-003	  1.56567E-003	  1.58595E-003	  3.20293E-003	  2.99952E-003	  1.62288E-003	  1.54750E-003	  1.89071E-003	  5.38068E-003	  5.25178E-003	  5.62436E-003	  4.99217E-003	  4.75884E-003	  3.94182E-003	  6.65051E-003	  6.28131E-003	  5.48280E-003	  4.73157E-003	  6.09164E-003	
  1.80224E+001	  1.84721E-003	  1.99788E-003	  1.59719E-003	  1.73148E-003	  1.33873E-003	  1.43884E-003	  3.01596E-003	  2.76689E-003	  1.42754E-003	  1.47877E-003	  1.67885E-003	  4.94825E-003	  5.24199E-003	  3.82480E-003	  6.36569E-003	  2.65503E-003	  3.36100E-003	  6.47747E-003	  7.60160E-003	  4.73563E-003	  4.47304E-003	  4.74624E-003	
  1.96608E+001	  1.77928E-003	  1.75576E-003	  1.75392E-003	  1.65318E-003	  1.32992E-003	  1.27514E-003	  2.82821E-003	  2.81049E-003	  1.40269E-003	  1.30416E-003	  1.67928E-003	  4.76837E-003	  4.79808E-003	  3.69849E-003	  5.51060E-003	  3.34521E-003	  3.98010E-003	  6.44238E-003	  6.44592E-003	  4.08979E-003	  4.12330E-003	  5.24979E-003	
  2.12992E+001	  1.69888E-003	  1.80164E-003	  1.55644E-003	  1.62071E-003	  1.29601E-003	  1.12360E-003	  2.80692E-003	  2.42875E-003	  1.43242E-003	  1.31020E-003	  1.61213E-003	  4.64096E-003	  5.74521E-003	  4.41041E-003	  4.56833E-003	  3.75904E-003	  5.28931E-003	  5.36491E-003	  7.00322E-003	  4.21312E-003	  2.41549E-003	  3.64059E-003	
  2.29376E+001	  1.60731E-003	  1.80203E-003	  1.42044E-003	  1.60198E-003	  1.21755E-003	  1.28858E-003	  2.62965E-003	  2.10699E-003	  1.32413E-003	  1.25636E-003	  1.42541E-003	  4.39393E-003	  3.69296E-003	  4.17891E-003	  5.23618E-003	  2.40938E-003	  3.58509E-003	  6.43534E-003	  5.84266E-003	  4.33219E-003	  3.64489E-003	  4.58168E-003	
  2.45760E+001	  1.54343E-003	  1.93391E-003	  1.39647E-003	  1.51341E-003	  1.20138E-003	  1.11837E-003	  2.45712E-003	  2.06446E-003	  1.23339E-003	  1.16051E-003	  1.35527E-003	  4.45302E-003	  3.99279E-003	  3.96631E-003	  5.36488E-003	  3.48059E-003	  4.09472E-003	  5.36319E-003	  5.67138E-003	  5.26928E-003	  3.11962E-003	  4.20747E-003	
  2.62144E+001	  1.49218E-003	  1.69670E-003	  1.47290E-003	  1.55785E-003	  1.17977E-003	  1.05094E-003	  2.30115E-003	  1.99696E-003	  1.20169E-003	  1.19610E-003	  1.26776E-003	  4.23993E-003	  4.52789E-003	  3.37645E-003	  5.38684E-003	  2.98825E-003	  3.66068E-003	  4.75996E-003	  5.24633E-003	  4.78035E-003	  3.64990E-003	  4.02270E-003	
  2.94912E+001	  1.33352E-003	  1.30647E-003	  1.32491E-003	  1.41312E-003	  1.05623E-003	  9.76251E-004	  2.01506E-003	  1.70921E-003	  1.18698E-003	  1.16553E-003	  1.18142E-003	  4.26296E-003	  4.28148E-003	  4.33599E-003	  4.84946E-003	  3.32011E-003	  3.96375E-003	  5.00911E-003	  5.07791E-003	  4.39089E-003	  3.88451E-003	  3.51641E-003	
  3.27680E+001	  1.27095E-003	  1.17673E-003	  1.37748E-003	  1.47539E-003	  1.05585E-003	  9.83337E-004	  1.78494E-003	  1.68158E-003	  1.08900E-003	  1.04760E-003	  1.03760E-003	  3.84474E-003	  3.70839E-003	  3.95698E-003	  4.62720E-003	  3.09818E-003	  3.43016E-003	  3.60391E-003	  4.81273E-003	  3.86333E-003	  4.28600E-003	  3.06055E-003	
  3.60448E+001	  1.21103E-003	  1.20321E-003	  1.25887E-003	  1.39085E-003	  9.90939E-004	  9.42628E-004	  1.72004E-003	  1.51559E-003	  9.95175E-004	  1.08053E-003	  1.01245E-003	  3.33923E-003	  2.68767E-003	  3.52016E-003	  4.12293E-003	  3.31810E-003	  2.66801E-003	  3.34105E-003	  4.11486E-003	  3.47218E-003	  2.82368E-003	  3.32368E-003	
  3.93216E+001	  1.12348E-003	  1.17933E-003	  1.19021E-003	  1.16031E-003	  1.05334E-003	  7.82948E-004	  1.60266E-003	  1.46768E-003	  8.63068E-004	  9.26244E-004	  1.00905E-003	  3.10638E-003	  2.48235E-003	  3.93593E-003	  4.12713E-003	  2.42138E-003	  2.46950E-003	  3.25202E-003	  2.99472E-003	  3.25450E-003	  2.92726E-003	  3.19900E-003	
  4.25984E+001	  1.06410E-003	  1.08035E-003	  1.15713E-003	  1.12933E-003	  9.46764E-004	  7.39277E-004	  1.58447E-003	  1.36806E-003	  8.86693E-004	  8.86687E-004	  8.62275E-004	  3.09812E-003	  2.55807E-003	  4.58521E-003	  3.50702E-003	  3.61426E-003	  2.31408E-003	  3.22436E-003	  3.21544E-003	  2.92100E-003	  2.16015E-003	  2.88158E-003	
  4.58752E+001	  9.74849E-004	  1.02005E-003	  1.17982E-003	  1.03911E-003	  7.20028E-004	  6.09649E-004	  1.41470E-003	  1.32721E-003	  9.05647E-004	  8.20772E-004	  7.11512E-004	  2.84759E-003	  3.03641E-003	  4.78778E-003	  2.81256E-003	  1.71475E-003	  1.13175E-003	  2.79807E-003	  3.45247E-003	  2.65535E-003	  2.87012E-003	  3.21670E-003	
  4.91520E+001	  9.07084E-004	  9.15305E-004	  8.83253E-004	  1.18783E-003	  6.72800E-004	  6.08843E-004	  1.34525E-003	  1.24711E-003	  7.71207E-004	  6.28317E-004	  8.10931E-004	  2.48977E-003	  2.21329E-003	  2.23163E-003	  4.24543E-003	  1.56812E-003	  1.46019E-003	  2.27654E-003	  3.84789E-003	  2.53903E-003	  1.39353E-003	  3.12203E-003	
  5.24288E+001	  8.76948E-004	  8.82027E-004	  8.15855E-004	  1.18327E-003	  5.34422E-004	  5.17737E-004	  1.42503E-003	  1.17920E-003	  7.60983E-004	  6.24612E-004	  8.46349E-004	  2.48287E-003	  2.87054E-003	  2.08946E-003	  4.13597E-003	  1.70272E-003	  1.52127E-003	  2.21598E-003	  3.03724E-003	  2.74041E-003	  1.25976E-003	  3.25539E-003	
  5.89824E+001	  8.32714E-004	  8.22301E-004	  8.80477E-004	  1.02450E-003	  5.10803E-004	  5.66109E-004	  1.35152E-003	  1.06803E-003	  8.55971E-004	  6.32227E-004	  6.15196E-004	  2.16778E-003	  1.93821E-003	  2.18005E-003	  3.64021E-003	  7.97503E-004	  1.62107E-003	  2.06496E-003	  3.18976E-003	  2.76391E-003	  1.24985E-003	  2.23227E-003	
  6.55360E+001	  7.63623E-004	  7.31083E-004	  7.23569E-004	  8.83667E-004	  6.40248E-004	  5.07921E-004	  1.05737E-003	  1.10027E-003	  7.76165E-004	  6.77368E-004	  5.38568E-004	  2.30243E-003	  2.90247E-003	  1.49103E-003	  3.47037E-003	  1.15932E-003	  1.37366E-003	  2.65706E-003	  3.84303E-003	  2.15876E-003	  1.94967E-003	  2.01893E-003	
  7.20896E+001	  6.94799E-004	  7.00020E-004	  7.67547E-004	  8.06541E-004	  4.54358E-004	  5.40557E-004	  1.03439E-003	  9.23282E-004	  7.27790E-004	  5.17067E-004	  4.76443E-004	  2.20906E-003	  1.89041E-003	  2.27867E-003	  3.45326E-003	  1.10423E-003	  1.66508E-003	  2.10946E-003	  3.88381E-003	  2.60998E-003	  1.36769E-003	  1.72798E-003	
  7.86432E+001	  6.30208E-004	  7.49802E-004	  6.63993E-004	  7.81887E-004	  3.89852E-004	  4.87005E-004	  9.24653E-004	  7.57622E-004	  7.54781E-004	  3.04171E-004	  4.88313E-004	  1.71655E-003	  1.88085E-003	  1.89680E-003	  3.56042E-003	  1.41113E-003	  8.74451E-004	  5.38615E-004	  2.21328E-003	  2.02015E-003	  1.59435E-003	  1.17542E-003	
  8.51968E+001	  5.45739E-004	  7.47838E-004	  6.35822E-004	  9.23418E-004	  3.13863E-004	  3.18727E-004	  8.02035E-004	  5.29548E-004	  5.90220E-004	  2.72500E-004	  3.23415E-004	  1.47250E-003	  2.00899E-003	  1.21534E-003	  3.25741E-003	  1.11587E-003	  9.02591E-004	  7.56079E-004	  1.62976E-003	  1.33296E-003	  1.05158E-003	  1.45443E-003	
  9.17504E+001	  5.32304E-004	  8.95779E-004	  4.40286E-004	  9.35486E-004	  3.14139E-004	  3.51271E-004	  8.26736E-004	  4.32979E-004	  4.95104E-004	  2.95803E-004	  3.35456E-004	  1.51045E-003	  2.43390E-003	  1.79594E-003	  3.59952E-003	  3.42344E-004	 -7.45424E-005	  1.12446E-003	  1.81919E-003	  1.69489E-003	  6.07804E-004	  1.76103E-003	
  9.83040E+001	  5.39804E-004	  1.02213E-003	  5.35890E-004	  9.40178E-004	  2.37605E-004	  3.68471E-004	  7.39919E-004	  5.58063E-004	  4.71557E-004	  3.50422E-004	  1.73801E-004	  1.35915E-003	  1.96071E-003	  8.21532E-004	  3.77609E-003	 -3.37083E-005	  1.10547E-003	  6.44170E-004	  1.70860E-003	  1.21940E-003	  7.71400E-004	  1.61781E-003	
  1.04858E+002	  5.51047E-004	  1.06780E-003	  4.79016E-004	  7.96867E-004	  1.57541E-004	  3.80460E-004	  6.52302E-004	  9.01505E-004	  4.90412E-004	  3.27547E-004	  2.57020E-004	  1.51269E-003	  2.62113E-003	  1.76714E-003	  3.27675E-003	  1.49818E-004	  9.78985E-004	  7.46917E-004	  2.22673E-003	  1.59979E-003	  4.45727E-004	  1.31388E-003	
  1.17965E+002	  5.29604E-004	  8.36749E-004	  5.37226E-004	  6.72869E-004	  1.25037E-004	  3.07424E-004	  4.35857E-004	  1.13172E-003	  5.46436E-004	  3.28476E-004	  3.74242E-004	  1.34069E-003	  1.86087E-003	  1.74671E-003	  2.97951E-003	  1.64269E-004	  3.09714E-004	  3.70030E-004	  2.55623E-003	  2.07209E-003	 -5.70701E-006	  1.35317E-003	
  1.31072E+002	  4.92578E-004	  4.95534E-004	  5.68001E-004	  7.35572E-004	  1.36065E-004	  2.60823E-004	  3.56343E-004	  1.08619E-003	  4.46991E-004	  3.39797E-004	  5.00462E-004	  1.42227E-003	  1.64018E-003	  1.62163E-003	  2.64295E-003	  5.09818E-004	  5.11746E-004	  2.76249E-004	  2.77781E-003	  1.72204E-003	  2.31202E-004	  2.28904E-003	
  1.44179E+002	  4.43096E-004	  6.69634E-004	  4.12973E-004	  6.10952E-004	  1.14885E-004	  1.04689E-004	  4.51187E-004	  1.14034E-003	  4.06157E-004	  2.06995E-004	  3.13150E-004	  1.26232E-003	  2.71574E-003	  1.21586E-003	  2.06273E-003	 -3.77657E-004	 -1.42419E-004	  1.13970E-003	  2.39520E-003	  9.48553E-004	  4.51315E-004	  2.21420E-003	
  1.57286E+002	  4.42670E-004	  7.68065E-004	  7.16323E-004	  5.18529E-004	  1.04289E-004	  1.22621E-004	  4.35335E-004	  1.02601E-003	  3.43174E-004	  2.13039E-004	  1.79312E-004	  9.79985E-004	  1.27668E-003	  1.70089E-003	  1.70125E-003	 -2.35708E-004	  8.34002E-005	  1.09526E-003	  2.32367E-003	  8.46027E-004	  5.49719E-004	  4.58663E-004	
  1.70394E+002	  3.77919E-004	  5.16571E-004	  7.26331E-004	  4.07820E-004	  9.59081E-005	  1.94093E-004	  3.87426E-004	  6.61257E-004	  2.91127E-004	  1.68234E-004	  3.30426E-004	  8.32750E-004	  1.12046E-003	  1.52784E-003	  1.85764E-003	  1.20055E-006	 -2.09974E-004	  4.70781E-004	  2.04016E-003	  5.48192E-004	  3.11395E-004	  6.59799E-004	
  1.83501E+002	  3.24738E-004	  3.69972E-004	  5.09049E-004	  4.78308E-004	  1.62453E-004	  1.46592E-004	  3.74269E-004	  5.37922E-004	  2.66463E-004	  1.63064E-004	  2.39290E-004	  9.73867E-004	  6.23471E-004	  1.55243E-003	  1.81163E-003	  4.68959E-004	  3.48718E-004	  4.22542E-004	  1.45662E-003	  1.13425E-003	  1.09139E-003	  8.28655E-004	
  1.96608E+002	  2.63254E-004	  3.55936E-004	  4.68261E-004	  4.38888E-004	  6.22343E-005	  7.53702E-005	  2.05498E-004	  4.75208E-004	  1.94001E-004	  1.43599E-004	  2.13548E-004	  6.03014E-004	  1.03528E-003	  1.37671E-003	  1.71014E-003	  2.26220E-004	 -8.46735E-004	 -1.40236E-004	  1.36899E-003	  6.54634E-004	  1.12200E-005	  6.33928E-004	
  2.09715E+002	  2.64757E-004	  3.48852E-004	  5.36903E-004	  2.63907E-004	  5.91350E-005	  2.01490E-004	  2.55945E-004	  4.68079E-004	  2.23020E-004	  1.34830E-004	  1.55409E-004	  6.68550E-004	  7.95129E-004	  1.85047E-003	  9.65071E-004	  2.31116E-005	  8.88952E-005	  1.13266E-004	  1.26139E-003	  8.96545E-004	  1.87035E-004	  5.04589E-004	
  2.35930E+002	  2.73276E-004	  2.79953E-004	  4.58376E-004	  1.57644E-004	 -1.59950E-005	  1.39352E-004	  3.80047E-004	  5.63707E-004	  2.33997E-004	  2.55831E-004	  2.79847E-004	  5.48051E-004	  4.95736E-004	  1.24009E-003	  1.22478E-003	 -3.64449E-004	  3.53056E-004	 -6.78312E-005	  1.07581E-003	  4.02491E-004	  6.26916E-004	  4.93910E-004	
  2.62144E+002	  2.79176E-004	  3.58693E-004	  2.52976E-004	  1.03253E-004	  2.00632E-004	  1.08021E-004	  4.84408E-004	  7.73970E-004	  1.79192E-004	  2.16863E-004	  1.13757E-004	  6.14264E-004	  4.77101E-004	  7.22043E-004	  9.13617E-004	  3.96473E-004	  2.57819E-004	  4.12017E-004	  1.25830E-003	  8.40260E-004	  5.14370E-004	  3.50641E-004	
  2.88358E+002	  2.73990E-004	  3.08725E-004	  1.68817E-004	  9.42543E-005	  1.19434E-005	  7.73172E-005	  5.71340E-004	  7.47141E-004	  3.04399E-004	  1.68383E-004	  2.87584E-004	  4.59919E-004	  5.92625E-004	  4.42082E-004	  5.33284E-004	 -3.71494E-005	  5.03022E-004	  3.39167E-004	  1.25558E-003	  4.66412E-004	  6.81771E-005	  4.35986E-004	
  3.14573E+002	  2.34954E-004	  3.39774E-004	  3.60092E-004	  1.41592E-004	 -1.13824E-004	 -5.90469E-005	  6.03820E-004	  6.25867E-004	  2.02292E-004	  1.66987E-005	  2.32274E-004	  3.62640E-004	 -2.79956E-004	  6.75115E-004	  8.60615E-004	 -2.47351E-004	  1.30065E-004	  6.36037E-004	  1.41811E-003	  4.11785E-004	 -4.85303E-005	  7.05069E-005	
  3.40787E+002	  1.55520E-004	 -3.64243E-005	  3.28228E-004	  8.59514E-005	 -6.03243E-005	  1.72902E-005	  5.11719E-004	  3.74571E-004	  1.25044E-004	  3.02540E-005	  1.78887E-004	  2.68391E-004	 -4.07263E-004	  5.91207E-004	  3.01449E-004	 -1.77905E-006	 -1.92752E-004	  4.01259E-004	  8.90496E-004	  4.83341E-004	  7.75885E-005	  5.40369E-004	
  3.67002E+002	  1.73689E-004	  1.27748E-004	  3.72589E-004	  8.13588E-005	  6.58443E-006	  3.57634E-005	  5.72135E-004	  2.58912E-004	  1.03837E-004	  3.57187E-005	  1.42243E-004	  1.49076E-004	 -1.58011E-004	  3.28175E-004	  1.16796E-004	  6.36782E-004	 -7.40145E-004	 -2.97656E-005	  2.05847E-004	  5.50895E-004	  3.82857E-004	  1.97332E-004	
  3.93216E+002	  1.81654E-004	  1.21760E-004	  3.64685E-004	  2.62213E-005	  7.64938E-005	  3.13958E-005	  4.55250E-004	  4.29446E-004	  2.41501E-005	  4.20990E-005	  2.45039E-004	  1.34975E-004	 -5.58385E-004	  4.10903E-004	  1.17495E-004	  2.17406E-004	 -4.58611E-004	  4.87384E-004	  1.23908E-003	 -3.41087E-004	  1.33758E-004	  1.01813E-004	
  4.19430E+002	  2.24044E-004	  1.11489E-004	  3.34946E-004	  1.46807E-004	 -3.36946E-005	  1.77360E-004	  4.67969E-004	  7.93676E-004	  5.42526E-006	  1.45505E-005	  2.21915E-004	  1.65955E-004	 -8.07969E-004	  3.82092E-004	  2.32103E-004	  8.10482E-005	 -1.27522E-004	  6.84023E-004	  1.41393E-003	 -3.70816E-004	 -3.26574E-004	  4.99242E-004	
  4.71859E+002	  2.23511E-004	  1.64503E-004	  2.92126E-004	  1.74143E-004	  9.10143E-005	  1.44750E-004	  7.30171E-004	  5.71804E-004	  8.25312E-005	 -1.15078E-004	  9.91448E-005	 -1.23550E-005	 -1.13958E-003	  3.62881E-004	 -2.09377E-004	  1.11708E-004	 -2.10311E-004	  8.21010E-004	  1.48955E-003	 -3.33476E-004	 -7.19005E-004	 -2.96953E-004	
  5.24288E+002	  1.77616E-004	  1.68889E-004	  2.86770E-004	  7.33797E-005	  1.25532E-004	  1.82492E-004	  5.66435E-004	  4.11325E-004	 -7.70179E-005	 -4.23530E-005	  8.07062E-005	  2.49489E-004	 -1.74655E-005	  1.22158E-003	 -5.75954E-004	  2.52035E-004	  3.89345E-004	  1.10908E-003	  5.91783E-004	 -4.54834E-004	  1.78705E-004	 -1.99379E-004	
  5.76717E+002	  1.70770E-004	  1.17508E-004	  4.09427E-004	  1.43900E-004	  6.66050E-005	  1.60257E-004	  4.82526E-004	  3.43681E-004	 -7.95449E-005	  6.56045E-005	 -2.26544E-006	  3.15402E-004	 -2.47017E-004	  1.42193E-003	 -1.12596E-004	  1.82341E-004	  7.04747E-004	  6.17434E-004	  8.19979E-004	 -7.84125E-004	  5.24209E-004	  2.71252E-005	
  6.29146E+002	  1.29756E-004	  1.31861E-004	  1.76788E-004	  3.55233E-005	  1.35300E-004	  1.34868E-004	  4.38043E-004	  2.79819E-004	 -4.76920E-005	  1.65832E-006	  1.13900E-005	  1.09414E-004	 -8.66227E-004	 -7.30683E-005	 -1.23509E-004	  2.38019E-004	  2.18130E-004	  6.40868E-004	  5.73065E-004	 -3.89412E-004	  5.64822E-004	  3.11449E-004	
  6.81574E+002	  9.46624E-005	  2.41677E-004	  2.06316E-004	 -1.19302E-005	  5.43185E-005	  5.84493E-005	  3.08429E-004	  7.80039E-005	  7.92299E-005	 -6.95309E-005	  1.66295E-006	  1.24230E-004	 -1.17252E-004	  2.50572E-004	  9.12595E-005	  3.57730E-004	 -2.94103E-004	  1.24813E-004	  1.06703E-003	 -3.68963E-004	 -7.71174E-005	  2.08332E-004	
  7.34003E+002	  7.84362E-005	  2.58214E-004	  2.53150E-004	  4.45037E-005	  3.72599E-005	  8.86885E-005	  7.89062E-005	  3.03424E-004	  2.91477E-005	 -2.73835E-004	 -3.50973E-005	  2.03140E-005	 -1.72255E-005	  7.99023E-004	  2.33675E-004	 -6.50965E-005	  2.50152E-004	 -3.44260E-004	  1.15379E-004	 -1.18916E-004	 -9.55386E-004	  3.05794E-004	
  7.86432E+002	  9.02734E-005	  1.86552E-004	  1.83794E-004	  7.91523E-005	 -3.66182E-005	  1.02005E-004	  3.19747E-004	  1.58186E-004	  3.12031E-005	 -1.48845E-004	  2.75578E-005	  1.42812E-004	  4.32840E-004	  4.02432E-004	  1.93131E-004	 -1.84288E-004	  6.76728E-004	  3.78783E-005	  2.03992E-004	 -2.21730E-004	 -2.69888E-004	  1.57020E-004	
  8.38861E+002	  8.88780E-005	  1.67863E-004	  2.19765E-004	 -1.26195E-005	  3.42460E-005	  2.10760E-004	  2.98535E-004	 -1.07376E-004	  1.05834E-004	 -5.35042E-005	  2.52771E-005	  9.50603E-005	  2.24918E-004	 -1.45965E-005	 -3.24686E-005	 -2.05929E-004	  7.70492E-004	  5.28225E-004	 -4.45785E-004	  1.94967E-004	  6.41772E-005	 -1.33397E-004	
  9.43718E+002	  8.22069E-005	  9.37501E-005	  1.16894E-004	  2.92091E-005	  2.22759E-005	  1.64266E-004	  3.29644E-004	  2.26642E-005	  1.66185E-004	 -3.43622E-005	 -8.84570E-005	  9.81134E-005	 -7.64196E-006	  1.54760E-004	  4.78364E-004	  2.52432E-005	  3.42148E-004	  5.50822E-004	 -2.89061E-004	  5.64405E-005	  1.25508E-004	 -4.55449E-004	
  1.04858E+003	  9.46344E-005	  1.99518E-004	  8.59561E-005	  3.24639E-004	 -1.86395E-005	  1.30675E-004	  2.59445E-004	  4.28455E-005	  1.45951E-004	 -5.30428E-005	 -1.71004E-004	 -4.29711E-005	  5.33958E-004	  2.19345E-004	  5.80898E-004	 -4.29449E-004	 -1.85660E-004	 -3.40888E-005	  1.80667E-005	  9.17503E-005	 -4.14798E-004	 -8.09733E-004	
  1.15343E+003	  6.80495E-005	  2.97723E-004	 -6.33751E-006	  1.43925E-004	 -1.51650E-004	 -3.03873E-005	  2.13820E-004	  4.90520E-005	  1.74427E-004	  8.24864E-005	 -9.25632E-005	  4.31297E-005	  1.51601E-004	  4.30311E-004	  1.17478E-004	 -4.51661E-004	 -3.99999E-004	  6.56714E-004	 -3.69142E-005	  3.06065E-004	  2.57620E-005	 -3.68060E-004	
  1.25829E+003	  7.04498E-005	  1.81706E-004	  5.78246E-005	  9.22619E-005	 -2.51595E-005	 -8.29688E-005	  3.20745E-004	  4.43051E-005	  1.96686E-004	  1.79506E-006	 -8.26974E-005	 -2.35486E-005	  6.00464E-005	  7.09150E-005	  3.48846E-004	 -3.00109E-004	 -4.97906E-004	  2.40403E-004	  8.21213E-005	  3.71398E-004	 -2.08948E-004	 -4.02253E-004	
  1.36315E+003	  3.18174E-005	  2.47441E-004	  1.15643E-005	  1.51588E-004	 -1.75522E-004	  8.25188E-006	  1.33319E-004	 -1.27725E-005	  1.67715E-004	 -5.34868E-005	 -1.59923E-004	 -6.97803E-005	  2.83571E-004	  8.09292E-005	  6.74851E-005	 -6.99784E-004	  2.50849E-004	  2.22672E-004	  4.95078E-005	  5.22911E-004	 -5.79598E-004	 -8.96348E-004	
  1.46801E+003	  5.40775E-006	  9.00655E-005	 -4.05205E-005	  3.02108E-005	 -2.13167E-004	  1.91895E-004	  1.13143E-004	 -3.90002E-005	  1.18150E-004	 -4.45182E-005	 -1.52181E-004	 -2.31167E-005	  1.73270E-004	 -8.08929E-005	 -4.28938E-004	 -3.86974E-004	  2.09559E-004	  6.47564E-004	 -7.13954E-005	  3.60910E-004	 -3.38648E-005	 -6.20406E-004	
  1.57286E+003	  6.01208E-005	  6.37663E-005	 -4.69314E-005	  4.28933E-006	 -1.72952E-004	  3.56529E-004	  2.16911E-004	  2.73706E-004	  1.24659E-004	 -2.06534E-004	 -1.22346E-005	  8.72220E-006	 -3.28820E-004	 -4.91363E-005	 -1.82529E-006	 -7.91432E-004	  1.09850E-003	  2.85691E-004	  4.34904E-004	 -4.07409E-005	 -2.27761E-004	 -2.92153E-004	
  1.67772E+003	  6.78484E-005	  1.30848E-004	  1.60919E-004	 -3.22693E-006	 -1.42325E-004	  2.09060E-004	  7.84387E-005	  2.42639E-004	  2.07775E-004	 -8.75232E-005	 -1.18120E-004	  5.32706E-006	 -1.82631E-004	 -5.42099E-005	  1.08576E-004	 -5.06182E-004	  6.79434E-004	  9.46379E-005	  3.28312E-004	  3.58085E-004	 -1.61951E-004	 -6.10801E-004	
  1.88744E+003	  3.09266E-005	  2.40039E-005	  9.53257E-005	 -1.00264E-004	 -8.84217E-006	  1.43907E-005	  5.84800E-005	  1.28668E-004	  1.94409E-004	 -3.99623E-005	 -5.69428E-005	  1.51322E-005	  1.36327E-005	 -2.20579E-004	 -5.72215E-004	  3.80469E-005	 -1.51927E-004	  6.98409E-004	  1.23599E-004	  7.60764E-005	  2.23625E-004	 -7.73453E-005	
  2.09715E+003	 -1.90666E-006	  6.33653E-005	  3.76797E-005	 -1.89581E-004	  1.69967E-005	 -1.03311E-005	  7.56281E-005	  6.20392E-005	  7.40442E-005	  2.93898E-005	 -1.78298E-004	 -1.96392E-004	 -2.40265E-004	 -5.08755E-004	 -8.28881E-004	 -1.33353E-006	 -2.26575E-004	  1.08501E-004	  3.53450E-004	 -2.70026E-004	  2.70856E-004	 -6.20892E-004	
  2.30687E+003	 -1.57613E-005	  6.80409E-005	 -7.73841E-006	 -2.82801E-004	 -3.55411E-005	  1.72904E-005	  9.41771E-005	  2.06031E-004	  8.58256E-005	 -3.69677E-005	 -2.65929E-004	 -1.68324E-004	 -5.52746E-004	 -6.24672E-004	 -4.09069E-004	  2.24267E-005	  3.97547E-004	 -1.03391E-004	  6.51804E-004	  2.48703E-004	  2.17326E-005	 -1.33557E-003	
  2.51658E+003	 -3.87091E-005	 -3.91997E-005	  4.21666E-005	 -1.42172E-004	  9.59822E-005	  2.07898E-005	 -8.79705E-005	  9.08793E-005	 -3.10774E-005	 -2.15714E-005	 -3.14918E-004	 -1.25882E-004	 -3.66466E-004	 -7.12827E-004	 -3.10649E-004	  2.98429E-005	  4.90554E-004	 -1.61826E-004	  3.60930E-004	  3.59281E-005	  4.75282E-005	 -6.71834E-004	
  2.72630E+003	  1.70143E-005	  6.16667E-005	  3.92646E-005	  2.21418E-005	  2.58384E-004	 -9.66019E-005	 -1.29426E-006	 -2.74016E-005	  2.76671E-005	  3.21846E-005	 -1.45868E-004	  1.05778E-005	  1.45837E-004	 -3.75242E-004	  1.21838E-004	  7.48950E-004	 -6.09353E-004	  3.16618E-004	 -5.54646E-004	  2.64702E-005	  3.15148E-004	 -2.98432E-005	
  2.93601E+003	  3.55898E-005	  1.30503E-004	  1.45673E-004	 -6.37212E-005	  1.31605E-004	 -4.75746E-005	  4.61552E-005	 -7.33335E-005	  1.63443E-004	  3.54734E-005	 -1.12326E-004	 -2.24266E-005	  5.44292E-004	  6.39936E-005	 -2.17624E-004	  1.04231E-004	 -3.40332E-004	  2.84659E-004	 -7.33928E-004	  6.96887E-005	  1.31896E-004	 -1.31142E-004	
  3.14573E+003	  8.64455E-006	  7.99641E-005	  1.23742E-004	 -2.52559E-004	  1.53111E-004	  1.21573E-005	 -1.51841E-004	 -7.43147E-005	  2.53456E-004	  1.57390E-005	 -7.30092E-005	 -5.48746E-005	  3.67886E-004	 -5.56005E-004	 -3.34249E-004	  2.54060E-004	  2.92147E-004	 -6.44882E-004	 -7.83795E-004	  6.56760E-004	  1.13178E-004	  8.61541E-005	
  3.35544E+003	  2.05433E-005	  7.94166E-005	  1.66196E-004	 -4.80480E-005	  4.76592E-005	 -7.65702E-006	 -2.28803E-004	 -1.43973E-005	  1.35373E-004	 -4.89165E-005	  1.24610E-004	 -7.10377E-005	 -1.60874E-004	 -2.93949E-004	  1.86712E-004	 -4.82934E-005	  4.25630E-005	 -4.40245E-004	 -5.92974E-004	  4.09158E-004	 -1.57460E-004	  3.44985E-004	
  3.77487E+003	  3.32915E-005	 -4.73874E-005	  3.70018E-004	 -1.17499E-004	  6.48335E-005	 -1.40811E-004	 -2.52988E-004	  1.87535E-004	  8.93334E-005	 -8.42963E-006	  1.88310E-004	  9.22070E-005	 -5.38123E-005	  7.80948E-004	 -3.46803E-004	  4.58906E-005	 -1.42396E-004	 -8.28396E-005	  1.68999E-004	  2.38460E-005	 -5.84342E-005	  5.86672E-004	
  4.19430E+003	 -2.65280E-007	 -4.89015E-005	  4.28243E-005	  1.54282E-004	 -3.24820E-005	 -8.33193E-005	 -4.00255E-004	  2.33250E-004	  8.99063E-005	 -8.47140E-006	  5.05143E-005	 -1.86355E-005	 -3.22190E-004	 -1.69714E-004	  5.43419E-004	 -4.00156E-005	 -1.64534E-004	 -4.67511E-004	  3.59732E-004	  7.20285E-005	  1.31007E-005	 -1.06705E-005	
  4.61373E+003	 -1.07526E-005	  4.84131E-005	  4.45250E-005	 -1.79258E-004	  2.80545E-005	 -3.06817E-005	 -2.92959E-004	  6.26245E-005	  6.76102E-006	 -1.86325E-005	  2.23627E-004	  2.20079E-007	 -4.63032E-005	  4.09045E-004	 -4.84227E-004	  8.02748E-005	  1.43589E-005	 -6.77217E-004	 -3.71422E-004	 -1.26017E-004	  3.58042E-004	  8.45666E-004	
  5.03317E+003	 -1.66654E-005	 -4.65021E-005	  8.74170E-005	 -1.16665E-004	 -4.35067E-005	 -9.06991E-005	 -4.13386E-005	 -7.01709E-005	  1.11867E-004	 -4.21395E-005	  8.50842E-005	 -9.33991E-005	 -4.40548E-004	  5.07871E-004	 -4.57993E-004	 -6.08859E-005	 -2.24471E-004	 -1.66088E-004	 -6.30069E-004	  4.47134E-004	  3.94421E-005	  5.16165E-005	
  5.45260E+003	  1.10745E-006	 -8.02879E-005	  2.11812E-004	 -6.75584E-005	 -4.96186E-005	 -1.50566E-004	 -5.10946E-005	  1.72959E-004	  4.57296E-005	 -4.89638E-005	  2.86633E-005	 -5.15654E-005	 -2.52100E-004	  7.19904E-004	 -3.11997E-004	 -1.25234E-004	 -2.68982E-005	 -2.21178E-004	  1.95580E-004	 -3.62697E-004	 -3.45118E-005	 -9.65224E-005	
  5.87203E+003	 -1.39111E-005	  1.57614E-004	  2.96314E-005	 -2.44675E-004	  6.04224E-005	 -1.49637E-004	 -5.63815E-005	  1.65161E-004	  5.15388E-005	 -9.46723E-005	 -5.81129E-005	 -1.61886E-004	  3.84489E-004	  1.92528E-004	 -1.18856E-003	 -6.34527E-005	 -2.38492E-004	 -1.92960E-004	  2.71401E-004	 -8.11811E-005	 -3.71062E-004	 -3.31573E-004	
  6.29146E+003	 -5.67953E-005	  1.12199E-004	 -1.88720E-005	 -3.51911E-004	  3.09501E-005	 -1.43486E-005	 -2.36796E-004	  4.19214E-006	  2.90729E-005	 -1.74637E-005	 -1.04976E-004	 -1.99076E-004	  2.31234E-004	 -2.76117E-004	 -1.35022E-003	 -5.02726E-005	  9.76194E-006	 -3.47455E-004	  5.22705E-005	  2.37683E-004	 -4.37842E-004	 -5.98023E-005	
  6.71089E+003	 -4.82549E-005	  1.08331E-004	 -7.56975E-005	 -3.73035E-004	 -1.03478E-004	 -1.12332E-004	  3.07312E-004	 -1.05674E-004	  5.43820E-005	 -1.00098E-004	 -8.22592E-005	 -1.20875E-004	  6.70804E-004	 -1.73293E-004	 -1.13968E-003	 -3.77890E-004	 -1.76142E-004	  8.06128E-004	 -2.35422E-004	  4.95918E-005	 -3.60415E-004	 -2.72436E-004	
  7.54975E+003	 -7.55346E-005	 -3.95100E-006	 -5.66956E-005	 -2.13211E-004	 -7.07521E-006	  4.21188E-006	 -2.00597E-004	 -1.29026E-004	  6.30073E-006	  9.81240E-005	 -2.53427E-004	 -2.58766E-004	 -3.67744E-005	 -4.06880E-004	 -3.85117E-004	 -4.09911E-004	  3.48294E-004	 -5.32415E-004	 -3.51751E-004	 -1.25219E-004	  1.09847E-004	 -7.97736E-004	
  8.38861E+003	  5.98370E-005	 -1.34858E-004	  7.07455E-005	  1.96597E-004	  5.71051E-005	  3.47580E-005	  1.66049E-004	  1.95910E-005	  7.91208E-007	  1.30217E-004	  5.73741E-005	  1.39131E-004	 -8.08461E-005	 -1.02724E-004	  9.95091E-004	  2.09650E-004	 -1.66849E-004	  3.56010E-004	 -6.98811E-005	 -3.13163E-004	  4.06211E-004	  1.57815E-004	
  9.22747E+003	  7.91667E-005	  2.38466E-004	  3.11744E-004	 -2.04945E-004	 -8.64810E-005	 -9.38926E-005	  3.11444E-004	  1.55156E-004	  1.51378E-004	 -9.15186E-005	  1.00318E-004	  2.29390E-004	  5.58420E-004	  9.54730E-004	 -2.42927E-004	 -5.41318E-005	 -1.79956E-004	 -3.68919E-004	  6.87656E-004	  6.78939E-004	 -1.31351E-004	  3.91443E-004	
  1.00663E+004	  7.80864E-005	 -2.96195E-005	  7.24405E-005	  4.32836E-004	  4.48476E-005	  7.00526E-005	  1.27833E-004	 -2.96401E-005	  2.24218E-005	 -9.67396E-005	  1.66433E-004	  5.88292E-005	 -7.01739E-004	  5.43417E-004	  7.90754E-004	  1.39278E-004	  2.16979E-004	 -1.06967E-004	 -2.77340E-004	 -3.27038E-005	 -2.49870E-004	  2.66484E-004	
  1.09052E+004	 -5.18668E-005	 -1.73078E-004	 -7.73824E-005	  1.85841E-004	  1.43662E-004	  9.65954E-005	 -4.21687E-004	 -9.19661E-005	 -7.93056E-005	  6.51677E-005	 -1.66514E-004	 -2.89615E-004	 -4.61448E-004	 -1.39257E-004	 -2.02284E-004	  1.83838E-004	 -5.82932E-005	 -1.07236E-003	 -3.48149E-004	 -1.50140E-004	 -1.69750E-004	 -4.78302E-004	
  1.17441E+004	  3.88028E-005	  1.36435E-004	 -1.06979E-004	  3.50226E-004	 -1.24610E-004	  1.39583E-004	  7.66779E-005	 -3.03060E-005	 -1.15285E-004	  1.25441E-004	 -6.31558E-005	  1.60525E-004	  4.58512E-004	 -1.22467E-004	  1.07733E-003	 -3.51658E-004	  3.88466E-004	  8.56938E-005	 -8.00676E-005	 -8.68321E-005	  2.66196E-004	 -2.99151E-005	
  1.25829E+004	  2.50372E-005	  3.84854E-005	 -2.32584E-004	  2.34875E-005	 -6.81660E-005	  3.37680E-004	  6.26352E-006	  1.29432E-004	  4.93413E-005	 -1.20347E-004	  8.67802E-005	 -9.88641E-005	 -7.06277E-005	 -8.55192E-004	 -2.35910E-004	 -3.68273E-004	  7.75567E-004	 -4.33110E-004	  6.71822E-004	  1.05162E-004	 -2.49800E-004	 -3.28280E-004	

"Count Rate"
       0.11719	      89.58640	       8.53853	      89.58640	       8.53853
       0.23438	      88.52122	       8.72600	      88.52122	       8.72600
       0.35156	      84.99332	       8.24028	      84.99332	       8.24028
       0.46875	      82.32610	       8.12098	      82.32610	       8.12098
       0.58594	      83.18677	       7.91646	      83.18677	       7.91646
       0.70313	      85.91364	       8.61522	      85.91364	       8.61522
       0.82031	      86.97031	       8.66635	      86.97031	       8.66635
       0.93750	      81.28648	       8.01020	      81.28648	       8.01020
       1.05469	      87.96732	       8.15506	      87.96732	       8.15506
       1.17188	      82.71809	       7.33700	      82.71809	       7.33700
       1.28906	      78.38917	       7.06431	      78.38917	       7.06431
       1.40625	      83.91109	       7.89942	      83.91109	       7.89942
       1.52344	      84.32012	       8.06133	      84.32012	       8.06133
       1.64063	      82.39426	       7.94203	      82.39426	       7.94203
       1.75781	      84.92515	       8.17211	      84.92515	       8.17211
       1.87500	      88.47861	       9.05834	      88.47861	       9.05834
       1.99219	      84.18378	       8.48740	      84.18378	       8.48740
       2.10938	      83.27198	       7.65230	      83.27198	       7.65230
       2.22656	      86.28007	       8.43627	      86.28007	       8.43627
       2.34375	      82.17271	       7.31996	      82.17271	       7.31996
       2.46094	      83.60432	       7.83125	      83.60432	       7.83125
       2.57813	      83.39128	       7.91646	      83.39128	       7.91646
       2.69531	      86.38232	       9.16060	      86.38232	       9.16060
       2.81250	      87.81393	       8.91348	      87.81393	       8.91348
       2.92969	      81.62733	       7.10692	      81.62733	       7.10692
       3.04688	      86.50163	       8.16359	      86.50163	       8.16359
       3.16406	      84.82289	       8.67487	      84.82289	       8.67487
       3.28125	      84.49908	       8.08689	      84.49908	       8.08689
       3.39844	      90.63454	       9.25434	      90.63454	       9.25434
       3.51563	      91.95538	       9.95310	      91.95538	       9.95310
       3.63281	      83.53615	       7.45630	      83.53615	       7.45630
       3.75000	      84.22639	       7.95907	      84.22639	       7.95907
       3.86719	      81.63586	       7.83977	      81.63586	       7.83977
       3.98438	      81.05640	       7.98463	      81.05640	       7.98463
       4.10156	      81.50803	       8.25732	      81.50803	       8.25732
       4.21875	      86.28007	       8.18915	      86.28007	       8.18915
       4.33594	      83.89405	       7.65230	      83.89405	       7.65230
       4.45313	      83.85144	       7.53300	      83.85144	       7.53300
       4.57031	      85.58983	       7.60117	      85.58983	       7.60117
       4.68750	      84.03892	       7.84829	      84.03892	       7.84829
       4.80469	      87.07256	       8.28289	      87.07256	       8.28289
       4.92188	      88.63200	       8.47888	      88.63200	       8.47888
       5.03906	      84.66098	       8.01872	      84.66098	       8.01872
       5.15625	      83.41685	       8.24880	      83.41685	       8.24880
       5.27344	      88.53826	       8.58966	      88.53826	       8.58966
       5.39063	      85.32566	       8.20619	      85.32566	       8.20619
       5.50781	      81.61881	       7.39665	      81.61881	       7.39665
       5.62500	      83.99631	       8.47036	      83.99631	       8.47036
       5.74219	      83.54467	       7.75455	      83.54467	       7.75455
       5.85938	      82.64139	       7.55856	      82.64139	       7.55856
       5.97656	      78.51699	       6.90241	      78.51699	       6.90241
       6.09375	      79.04532	       7.19214	      79.04532	       7.19214
       6.21094	      84.81437	       8.02724	      84.81437	       8.02724
       6.32813	      84.85698	       7.69490	      84.85698	       7.69490
       6.44531	      84.00483	       7.74603	      84.00483	       7.74603
       6.56250	      85.22340	       7.86533	      85.22340	       7.86533
       6.67969	      85.64948	       8.42775	      85.64948	       8.42775
       6.79688	      83.60432	       8.01020	      83.60432	       8.01020
       6.91406	      83.48502	       8.23176	      83.48502	       8.23176
       7.03125	      94.24766	       9.38216	      94.24766	       9.38216
       7.14844	      93.87271	       9.26286	      93.87271	       9.26286
       7.26563	      85.15523	       8.16359	      85.15523	       8.16359
       7.38281	      80.80927	       7.39665	      80.80927	       7.39665
       7.50000	      83.82587	       7.49891	      83.82587	       7.49891
       7.61719	      84.85698	       8.38514	      84.85698	       8.38514
       7.73438	      85.52165	       8.58114	      85.52165	       8.58114
       7.85156	      84.75472	       7.82273	      84.75472	       7.82273
       7.96875	      88.87912	       8.78565	      88.87912	       8.78565
       8.08594	      85.84547	       7.85681	      85.84547	       7.85681
       8.20313	      85.99886	       8.19767	      85.99886	       8.19767
       8.32031	      83.70657	       7.74603	      83.70657	       7.74603
       8.43750	      92.67970	       9.40772	      92.67970	       9.40772
       8.55469	      87.20039	       8.34254	      87.20039	       8.34254
       8.67188	      90.26812	       9.49294	      90.26812	       9.49294
       8.78906	      84.02187	       7.88238	      84.02187	       7.88238
       8.90625	      84.79733	       7.94203	      84.79733	       7.94203
       9.02344	      84.23491	       7.81420	      84.23491	       7.81420
       9.14063	      82.76069	       7.95055	      82.76069	       7.95055
       9.25781	      85.09558	       7.92498	      85.09558	       7.92498
       9.37500	      81.68698	       7.32848	      81.68698	       7.32848
       9.49219	      80.13607	       7.25179	      80.13607	       7.25179
       9.60938	      83.62988	       8.06133	      83.62988	       8.06133
       9.72656	      79.58218	       7.50743	      79.58218	       7.50743
       9.84375	      79.45435	       7.16657	      79.45435	       7.16657
       9.96094	      81.44838	       7.44778	      81.44838	       7.44778
      10.07813	      83.58727	       7.50743	      83.58727	       7.50743
      10.19531	      84.10709	       8.29141	      84.10709	       8.29141
      10.31250	      84.55872	       8.63227	      84.55872	       8.63227
      10.42969	      85.01888	       7.96759	      85.01888	       7.96759
      10.54688	      83.82587	       7.63525	      83.82587	       7.63525
      10.66406	      85.08706	       8.06985	      85.08706	       8.06985
      10.78125	      81.94263	       7.54152	      81.94263	       7.54152
      10.89844	      85.58131	       8.65783	      85.58131	       8.65783
      11.01563	      89.27111	       9.39068	      89.27111	       9.39068
      11.13281	      85.77730	       8.64079	      85.77730	       8.64079
      11.25000	      93.42960	       9.74858	      93.42960	       9.74858
      11.36719	      85.07854	       8.13802	      85.07854	       8.13802
      11.48438	      86.98735	       9.19469	      86.98735	       9.19469
      11.60156	      89.96135	       8.99869	      89.96135	       8.99869
      11.71875	      85.98181	       8.47888	      85.98181	       8.47888
      11.83594	      86.22894	       7.77160	      86.22894	       7.77160
      11.95313	      82.35166	       7.76308	      82.35166	       7.76308
      12.07031	      91.87016	       9.41624	      91.87016	       9.41624
      12.18750	      96.82967	       9.72302	      96.82967	       9.72302
      12.30469	      91.98094	       9.16060	      91.98094	       9.16060
      12.42188	      83.61284	       8.14654	      83.61284	       8.14654
      12.53906	      86.54424	       8.43627	      86.54424	       8.43627
      12.65625	      85.33418	       8.08689	      85.33418	       8.08689
      12.77344	      84.45647	       8.25732	      84.45647	       8.25732
      12.89063	      81.91706	       7.92498	      81.91706	       7.92498
      13.00781	      82.44540	       7.18361	      82.44540	       7.18361
      13.12500	      80.86892	       7.26031	      80.86892	       7.26031
      13.24219	      80.63884	       7.50743	      80.63884	       7.50743
      13.35938	      84.03892	       8.01020	      84.03892	       8.01020
      13.47656	      82.59026	       7.77160	      82.59026	       7.77160
      13.59375	      82.44540	       7.57560	      82.44540	       7.57560
      13.71094	      82.81182	       8.06985	      82.81182	       8.06985
      13.82813	      82.26644	       7.63525	      82.26644	       7.63525
      13.94531	      84.06448	       8.00168	      84.06448	       8.00168
      14.06250	      84.69507	       8.54705	      84.69507	       8.54705
      14.17969	      83.37424	       8.00168	      83.37424	       8.00168
      14.29688	      84.85698	       8.35958	      84.85698	       8.35958
      14.41406	      86.13520	       8.11246	      86.13520	       8.11246
      14.53125	      85.33418	       8.50445	      85.33418	       8.50445
      14.64844	      82.41983	       8.05281	      82.41983	       8.05281
      14.76563	      83.82587	       8.50445	      83.82587	       8.50445
      14.88281	      85.70913	       8.52149	      85.70913	       8.52149
      15.00000	      85.59834	       8.02724	      85.59834	       8.02724
      15.11719	      82.36018	       7.78864	      82.36018	       7.78864
      15.23438	      80.58772	       7.49039	      80.58772	       7.49039
      15.35156	      82.72661	       7.60969	      82.72661	       7.60969
      15.46875	      81.65290	       7.48187	      81.65290	       7.48187
      15.58594	      88.39339	       8.81974	      88.39339	       8.81974
      15.70313	      89.25407	       7.72899	      89.25407	       7.72899
      15.82031	      80.62180	       7.73751	      80.62180	       7.73751
      15.93750	      91.10323	       8.78565	      91.10323	       8.78565
      16.05469	      89.90170	       9.04982	      89.90170	       9.04982
      16.17188	      85.56426	       8.27436	      85.56426	       8.27436
      16.28906	      84.31160	       7.83977	      84.31160	       7.83977
      16.40625	      81.84037	       7.91646	      81.84037	       7.91646
      16.52344	      81.23534	       6.91093	      81.23534	       6.91093
      16.64063	      82.09602	       7.73751	      82.09602	       7.73751
      16.75781	      81.62733	       8.11246	      81.62733	       8.11246
      16.87500	      85.18079	       8.44479	      85.18079	       8.44479
      16.99219	      85.26601	       7.55004	      85.26601	       7.55004
      17.10938	      87.02144	       8.05281	      87.02144	       8.05281
      17.22656	      88.11218	       8.56410	      88.11218	       8.56410
      17.34375	      93.75341	       9.95310	      93.75341	       9.95310
      17.46094	      86.52719	       8.78565	      86.52719	       8.78565
      17.57813	      95.64518	      10.18318	      95.64518	      10.18318
      17.69531	      83.39128	       7.52447	      83.39128	       7.52447
      17.81250	      81.18422	       7.77160	      81.18422	       7.77160
      17.92969	      85.33418	       8.07837	      85.33418	       8.07837
      18.04688	      85.15523	       8.23176	      85.15523	       8.23176
      18.16406	      87.43047	       8.47036	      87.43047	       8.47036
      18.28125	      82.81182	       7.83977	      82.81182	       7.83977
      18.39844	      86.96178	       8.01020	      86.96178	       8.01020
      18.51563	      81.82333	       7.72899	      81.82333	       7.72899
      18.63281	      82.93964	       7.76308	      82.93964	       7.76308
      18.75000	      80.45989	       7.50743	      80.45989	       7.50743
      18.86719	      87.45603	       8.85383	      87.45603	       8.85383
      18.98438	      85.97329	       7.84829	      85.97329	       7.84829
      19.10156	      81.70403	       8.03576	      81.70403	       8.03576
      19.21875	      83.99631	       7.97611	      83.99631	       7.97611
      19.33594	      90.29369	       9.23729	      90.29369	       9.23729
      19.45313	      88.56383	       8.89643	      88.56383	       8.89643
      19.57031	      87.37082	       8.51297	      87.37082	       8.51297
      19.68750	      83.99631	       8.16359	      83.99631	       8.16359
      19.80469	      82.74364	       7.31996	      82.74364	       7.31996
      19.92188	      82.32610	       8.01872	      82.32610	       8.01872
      20.03906	      82.65843	       7.60117	      82.65843	       7.60117
      20.15625	      82.67548	       8.01020	      82.67548	       8.01020
      20.27344	      85.99033	       8.15506	      85.99033	       8.15506
      20.39063	      80.77518	       7.37109	      80.77518	       7.37109
      20.50781	      86.71466	       8.48740	      86.71466	       8.48740
      20.62500	      86.49310	       7.96759	      86.49310	       7.96759
      20.74219	      80.94562	       7.37961	      80.94562	       7.37961
      20.85938	      88.51270	       7.57560	      88.51270	       7.57560
      20.97656	      85.72617	       8.77713	      85.72617	       8.77713
      21.09375	      84.14970	       7.84829	      84.14970	       7.84829
      21.21094	      85.24044	       8.40219	      85.24044	       8.40219
      21.32813	      90.37890	       9.28842	      90.37890	       9.28842
      21.44531	      90.70272	       9.08391	      90.70272	       9.08391
      21.56250	      86.83396	       8.24880	      86.83396	       8.24880
      21.67969	      85.69209	       8.52149	      85.69209	       8.52149
      21.79688	      84.98480	       8.00168	      84.98480	       8.00168
      21.91406	      82.30905	       8.01020	      82.30905	       8.01020
      22.03125	      84.32012	       7.83125	      84.32012	       7.83125
      22.14844	      93.01204	      10.48995	      93.01204	      10.48995
      22.26563	      96.31837	       9.85936	      96.31837	       9.85936
      22.38281	      83.10155	       7.83977	      83.10155	       7.83977
      22.50000	      84.81437	       8.53001	      84.81437	       8.53001
      22.61719	      79.73557	       7.32848	      79.73557	       7.32848
      22.73438	      84.41386	       7.95055	      84.41386	       7.95055
      22.85156	      83.26346	       7.73751	      83.26346	       7.73751
      22.96875	      85.18079	       7.90794	      85.18079	       7.90794
      23.08594	      86.94474	       8.81974	      86.94474	       8.81974
      23.20313	      83.06747	       7.97611	      83.06747	       7.97611
      23.32031	      82.99929	       7.55856	      82.99929	       7.55856
      23.43750	      82.04488	       7.60969	      82.04488	       7.60969
      23.55469	      83.98779	       7.37961	      83.98779	       7.37961
      23.67188	      84.05595	       8.24880	      84.05595	       8.24880
      23.78906	      82.19827	       7.95907	      82.19827	       7.95907
      23.90625	      85.81139	       8.33401	      85.81139	       8.33401
      24.02344	      90.54081	       8.69192	      90.54081	       8.69192
      24.14063	      83.22937	       8.23176	      83.22937	       8.23176
      24.25781	      86.74875	       8.41071	      86.74875	       8.41071
      24.37500	      83.14416	       7.26031	      83.14416	       7.26031
      24.49219	      82.34314	       7.38813	      82.34314	       7.38813
      24.60938	      84.79733	       8.15506	      84.79733	       8.15506
      24.72656	      82.15566	       7.94203	      82.15566	       7.94203
      24.84375	      85.16375	       8.09541	      85.16375	       8.09541
      24.96094	      82.57322	       7.89942	      82.57322	       7.89942
      25.07813	      84.37125	       7.87385	      84.37125	       7.87385
      25.19531	      88.98990	       8.91348	      88.98990	       8.91348
      25.31250	      87.60942	       8.74305	      87.60942	       8.74305
      25.42969	      87.72020	       8.33401	      87.72020	       8.33401
      25.54688	      83.54467	       7.32848	      83.54467	       7.32848
      25.66406	      92.93535	       9.10947	      92.93535	       9.10947
      25.78125	      88.65756	       9.24581	      88.65756	       9.24581
      25.89844	      88.56383	       8.78565	      88.56383	       8.78565
      26.01563	      88.95581	       9.24581	      88.95581	       9.24581
      26.13281	      90.12325	       8.68340	      90.12325	       8.68340
      26.25000	      86.26302	       7.78012	      86.26302	       7.78012
      26.36719	      86.09259	       8.13802	      86.09259	       8.13802
      26.48438	      92.77344	       9.74006	      92.77344	       9.74006
      26.60156	      90.06361	       8.86235	      90.06361	       8.86235
      26.71875	      85.85399	       8.46184	      85.85399	       8.46184
      26.83594	      92.59449	       8.93052	      92.59449	       8.93052
      26.95313	      87.60942	       8.18063	      87.60942	       8.18063
      27.07031	      87.33673	       8.56410	      87.33673	       8.56410
      27.18750	      83.86848	       8.17211	      83.86848	       8.17211
      27.30469	      85.72617	       7.43926	      85.72617	       7.43926
      27.42188	      81.15865	       7.60117	      81.15865	       7.60117
      27.53906	      82.95669	       7.67786	      82.95669	       7.67786
      27.65625	      84.40533	       7.90794	      84.40533	       7.90794
      27.77344	      81.56768	       7.72047	      81.56768	       7.72047
      27.89063	      83.31459	       7.78012	      83.31459	       7.78012
      28.00781	      86.33119	       8.75157	      86.33119	       8.75157
      28.12500	      86.72318	       8.50445	      86.72318	       8.50445
      28.24219	      82.37722	       7.66082	      82.37722	       7.66082
      28.35938	      81.90002	       7.30292	      81.90002	       7.30292
      28.47656	      88.35078	       9.17764	      88.35078	       9.17764
      28.59375	      84.49055	       7.95055	      84.49055	       7.95055
      28.71094	      87.49012	       8.53001	      87.49012	       8.53001
      28.82813	      93.58298	       9.56963	      93.58298	       9.56963
      28.94531	      82.24088	       8.36810	      82.24088	       8.36810
      29.06250	      82.56470	       7.48187	      82.56470	       7.48187
      29.17969	      86.34824	       8.50445	      86.34824	       8.50445
      29.29688	      85.38531	       7.53300	      85.38531	       7.53300
      29.41406	      87.00439	       8.34254	      87.00439	       8.34254
      29.53125	      90.70272	       8.53001	      90.70272	       8.53001

Monitor Diode	      1.00
